/*--------------------------------*- C++ -*----------------------------------*\
| =========                 |                                                 |
| \\      /  F ield         | OpenFOAM: The Open Source CFD Toolbox           |
|  \\    /   O peration     | Version:  4.0                                   |
|   \\  /    A nd           | Web:      www.OpenFOAM.org                      |
|    \\/     M anipulation  |                                                 |
\*---------------------------------------------------------------------------*/
FoamFile
{
    version     2.0;
    format      ascii;
    class       volScalarField;
    location    "60/electrolyte";
    object      electrochemicalHeating;
}
// * * * * * * * * * * * * * * * * * * * * * * * * * * * * * * * * * * * * * //

dimensions      [0 0 0 0 0 0 0];

internalField   nonuniform List<scalar> 
4840
(
91193.34
91193.34
91193.34
91193.34
91193.34
90943.2
90943.2
90943.2
90943.2
90943.2
90589.01
90589.01
90589.01
90589.01
90589.01
90486.41
90486.41
90486.41
90486.41
90486.41
90663.79
90663.79
90663.79
90663.79
90663.79
90774.1
90774.1
90774.1
90774.1
90774.1
91201.45
91201.45
91201.45
91201.45
91201.45
91229.08
91229.08
91229.08
91229.08
91229.08
90872.82
90872.82
90872.82
90872.82
90872.82
91326.49
91326.49
91326.49
91326.49
91326.49
91358.47
91358.47
91358.47
91358.47
91358.47
91130.69
91130.69
91130.69
91130.69
91130.69
91466.27
91466.27
91466.27
91466.27
91466.27
91409.76
91409.76
91409.76
91409.76
91409.76
91040.91
91040.91
91040.91
91040.91
91040.91
91460.08
91460.08
91460.08
91460.08
91460.08
91420.3
91420.3
91420.3
91420.3
91420.3
91119.26
91119.26
91119.26
91119.26
91119.26
91469.8
91469.8
91469.8
91469.8
91469.8
91433.11
91433.11
91433.11
91433.11
91433.11
91068.58
91068.58
91068.58
91068.58
91068.58
91427.79
91427.79
91427.79
91427.79
91427.79
91427.45
91427.45
91427.45
91427.45
91427.45
91068.08
91068.08
91068.08
91068.08
91068.08
91428.59
91428.59
91428.59
91428.59
91428.59
91471.59
91471.59
91471.59
91471.59
91471.59
91121.14
91121.14
91121.14
91121.14
91121.14
91422.22
91422.22
91422.22
91422.22
91422.22
91460.83
91460.83
91460.83
91460.83
91460.83
91039.2
91039.2
91039.2
91039.2
91039.2
91409.81
91409.81
91409.81
91409.81
91409.81
91462.57
91462.57
91462.57
91462.57
91462.57
91126.86
91126.86
91126.86
91126.86
91126.86
91355.54
91355.54
91355.54
91355.54
91355.54
91324.97
91324.97
91324.97
91324.97
91324.97
90871.98
90871.98
90871.98
90871.98
90871.98
91229.52
91229.52
91229.52
91229.52
91229.52
91202.47
91202.47
91202.47
91202.47
91202.47
90774.7
90774.7
90774.7
90774.7
90774.7
90664.4
90664.4
90664.4
90664.4
90664.4
90479.9
90479.9
90479.9
90479.9
90479.9
90585.3
90585.3
90585.3
90585.3
90585.3
90938.47
90938.47
90938.47
90938.47
90938.47
91187
91187
91187
91187
91187
91594.35
91594.35
91594.35
91594.35
91594.35
92451.02
92451.02
92451.02
92451.02
92451.02
93259.4
93259.4
93259.4
93259.4
93259.4
93442.79
93442.79
93442.79
93442.79
93442.79
93280.21
93280.21
93280.21
93280.21
93280.21
93340.98
93340.98
93340.98
93340.98
93340.98
92194.76
92194.76
92194.76
92194.76
92194.76
92630.68
92630.68
92630.68
92630.68
92630.68
93650.58
93650.58
93650.58
93650.58
93650.58
93828.77
93828.77
93828.77
93828.77
93828.77
93856.32
93856.32
93856.32
93856.32
93856.32
93736.7
93736.7
93736.7
93736.7
93736.7
92618.53
92618.53
92618.53
92618.53
92618.53
92647.08
92647.08
92647.08
92647.08
92647.08
93724.19
93724.19
93724.19
93724.19
93724.19
93884.81
93884.81
93884.81
93884.81
93884.81
93888.72
93888.72
93888.72
93888.72
93888.72
93758.73
93758.73
93758.73
93758.73
93758.73
92667.79
92667.79
92667.79
92667.79
92667.79
92637.25
92637.25
92637.25
92637.25
92637.25
93728.46
93728.46
93728.46
93728.46
93728.46
93892.75
93892.75
93892.75
93892.75
93892.75
93891.64
93891.64
93891.64
93891.64
93891.64
93728.47
93728.47
93728.47
93728.47
93728.47
92637.58
92637.58
92637.58
92637.58
92637.58
92669.4
92669.4
92669.4
92669.4
92669.4
93755.99
93755.99
93755.99
93755.99
93755.99
93886.96
93886.96
93886.96
93886.96
93886.96
93885.75
93885.75
93885.75
93885.75
93885.75
93723.52
93723.52
93723.52
93723.52
93723.52
92645.91
92645.91
92645.91
92645.91
92645.91
92610.33
92610.33
92610.33
92610.33
92610.33
93727.13
93727.13
93727.13
93727.13
93727.13
93850.5
93850.5
93850.5
93850.5
93850.5
93826.22
93826.22
93826.22
93826.22
93826.22
93648.7
93648.7
93648.7
93648.7
93648.7
92627.7
92627.7
92627.7
92627.7
92627.7
92195.36
92195.36
92195.36
92195.36
92195.36
93340.01
93340.01
93340.01
93340.01
93340.01
93277.83
93277.83
93277.83
93277.83
93277.83
93438.89
93438.89
93438.89
93438.89
93438.89
93260.3
93260.3
93260.3
93260.3
93260.3
92451.81
92451.81
92451.81
92451.81
92451.81
91590.95
91590.95
91590.95
91590.95
91590.95
92001.54
92001.54
92001.54
92001.54
92001.54
92774.75
92774.75
92774.75
92774.75
92774.75
93515.8
93515.8
93515.8
93515.8
93515.8
93270.79
93270.79
93270.79
93270.79
93270.79
92819.98
92819.98
92819.98
92819.98
92819.98
93049.48
93049.48
93049.48
93049.48
93049.48
92191.97
92191.97
92191.97
92191.97
92191.97
92628.19
92628.19
92628.19
92628.19
92628.19
93456.86
93456.86
93456.86
93456.86
93456.86
93314.04
93314.04
93314.04
93314.04
93314.04
93263.79
93263.79
93263.79
93263.79
93263.79
93456.93
93456.93
93456.93
93456.93
93456.93
92535.99
92535.99
92535.99
92535.99
92535.99
92535.69
92535.69
92535.69
92535.69
92535.69
93441.18
93441.18
93441.18
93441.18
93441.18
93308.67
93308.67
93308.67
93308.67
93308.67
93285.94
93285.94
93285.94
93285.94
93285.94
93473.31
93473.31
93473.31
93473.31
93473.31
92564.11
92564.11
92564.11
92564.11
92564.11
92529.94
92529.94
92529.94
92529.94
92529.94
93438.48
93438.48
93438.48
93438.48
93438.48
93292.52
93292.52
93292.52
93292.52
93292.52
93292.07
93292.07
93292.07
93292.07
93292.07
93438.31
93438.31
93438.31
93438.31
93438.31
92529.81
92529.81
92529.81
92529.81
92529.81
92564.49
92564.49
92564.49
92564.49
92564.49
93474.72
93474.72
93474.72
93474.72
93474.72
93287.72
93287.72
93287.72
93287.72
93287.72
93309
93309
93309
93309
93309
93438.57
93438.57
93438.57
93438.57
93438.57
92532.75
92532.75
92532.75
92532.75
92532.75
92537.48
92537.48
92537.48
92537.48
92537.48
93454.86
93454.86
93454.86
93454.86
93454.86
93262.67
93262.67
93262.67
93262.67
93262.67
93313.05
93313.05
93313.05
93313.05
93313.05
93457.57
93457.57
93457.57
93457.57
93457.57
92626.71
92626.71
92626.71
92626.71
92626.71
92192.95
92192.95
92192.95
92192.95
92192.95
93051.44
93051.44
93051.44
93051.44
93051.44
92819.78
92819.78
92819.78
92819.78
92819.78
93270.21
93270.21
93270.21
93270.21
93270.21
93516.73
93516.73
93516.73
93516.73
93516.73
92775.34
92775.34
92775.34
92775.34
92775.34
92001.58
92001.58
92001.58
92001.58
92001.58
92048.28
92048.28
92048.28
92048.28
92048.28
92589.88
92589.88
92589.88
92589.88
92589.88
93338.39
93338.39
93338.39
93338.39
93338.39
92993.96
92993.96
92993.96
92993.96
92993.96
92392.23
92392.23
92392.23
92392.23
92392.23
92726.5
92726.5
92726.5
92726.5
92726.5
91877.62
91877.62
91877.62
91877.62
91877.62
92305.71
92305.71
92305.71
92305.71
92305.71
93101.44
93101.44
93101.44
93101.44
93101.44
92853.17
92853.17
92853.17
92853.17
92853.17
92780.46
92780.46
92780.46
92780.46
92780.46
93068.64
93068.64
93068.64
93068.64
93068.64
92151.79
92151.79
92151.79
92151.79
92151.79
92278.27
92278.27
92278.27
92278.27
92278.27
93097.33
93097.33
93097.33
93097.33
93097.33
92834.22
92834.22
92834.22
92834.22
92834.22
92811.09
92811.09
92811.09
92811.09
92811.09
93107.48
93107.48
93107.48
93107.48
93107.48
92231.28
92231.28
92231.28
92231.28
92231.28
92249.28
92249.28
92249.28
92249.28
92249.28
93093.59
93093.59
93093.59
93093.59
93093.59
92819.76
92819.76
92819.76
92819.76
92819.76
92819.82
92819.82
92819.82
92819.82
92819.82
93091.66
93091.66
93091.66
93091.66
93091.66
92246.99
92246.99
92246.99
92246.99
92246.99
92233.4
92233.4
92233.4
92233.4
92233.4
93113.75
93113.75
93113.75
93113.75
93113.75
92816.94
92816.94
92816.94
92816.94
92816.94
92834.73
92834.73
92834.73
92834.73
92834.73
93095.08
93095.08
93095.08
93095.08
93095.08
92276.14
92276.14
92276.14
92276.14
92276.14
92158.08
92158.08
92158.08
92158.08
92158.08
93073.04
93073.04
93073.04
93073.04
93073.04
92779.89
92779.89
92779.89
92779.89
92779.89
92853.44
92853.44
92853.44
92853.44
92853.44
93103.58
93103.58
93103.58
93103.58
93103.58
92306.14
92306.14
92306.14
92306.14
92306.14
91880.05
91880.05
91880.05
91880.05
91880.05
92731.48
92731.48
92731.48
92731.48
92731.48
92394.06
92394.06
92394.06
92394.06
92394.06
92995.87
92995.87
92995.87
92995.87
92995.87
93336.49
93336.49
93336.49
93336.49
93336.49
92587.88
92587.88
92587.88
92587.88
92587.88
92050.87
92050.87
92050.87
92050.87
92050.87
91751.82
91751.82
91751.82
91751.82
91751.82
92374.1
92374.1
92374.1
92374.1
92374.1
93042
93042
93042
93042
93042
92674.36
92674.36
92674.36
92674.36
92674.36
92067.39
92067.39
92067.39
92067.39
92067.39
92357.02
92357.02
92357.02
92357.02
92357.02
91655.46
91655.46
91655.46
91655.46
91655.46
92039.58
92039.58
92039.58
92039.58
92039.58
92739.85
92739.85
92739.85
92739.85
92739.85
92483.52
92483.52
92483.52
92483.52
92483.52
92409.95
92409.95
92409.95
92409.95
92409.95
92639.43
92639.43
92639.43
92639.43
92639.43
91904.39
91904.39
91904.39
91904.39
91904.39
92043.29
92043.29
92043.29
92043.29
92043.29
92721.54
92721.54
92721.54
92721.54
92721.54
92451.72
92451.72
92451.72
92451.72
92451.72
92431.66
92431.66
92431.66
92431.66
92431.66
92687.71
92687.71
92687.71
92687.71
92687.71
91956.12
91956.12
91956.12
91956.12
91956.12
91997.56
91997.56
91997.56
91997.56
91997.56
92698.11
92698.11
92698.11
92698.11
92698.11
92428.85
92428.85
92428.85
92428.85
92428.85
92428.69
92428.69
92428.69
92428.69
92428.69
92696.57
92696.57
92696.57
92696.57
92696.57
92000.2
92000.2
92000.2
92000.2
92000.2
91957.74
91957.74
91957.74
91957.74
91957.74
92688.84
92688.84
92688.84
92688.84
92688.84
92432.7
92432.7
92432.7
92432.7
92432.7
92450.54
92450.54
92450.54
92450.54
92450.54
92721.08
92721.08
92721.08
92721.08
92721.08
92040.41
92040.41
92040.41
92040.41
92040.41
91904.94
91904.94
91904.94
91904.94
91904.94
92639.94
92639.94
92639.94
92639.94
92639.94
92409.17
92409.17
92409.17
92409.17
92409.17
92484.5
92484.5
92484.5
92484.5
92484.5
92742.35
92742.35
92742.35
92742.35
92742.35
92041.03
92041.03
92041.03
92041.03
92041.03
91657.37
91657.37
91657.37
91657.37
91657.37
92358.89
92358.89
92358.89
92358.89
92358.89
92067.43
92067.43
92067.43
92067.43
92067.43
92679.06
92679.06
92679.06
92679.06
92679.06
93047.56
93047.56
93047.56
93047.56
93047.56
92379.54
92379.54
92379.54
92379.54
92379.54
91757.29
91757.29
91757.29
91757.29
91757.29
91536.45
91536.45
91536.45
91536.45
91536.45
92172.94
92172.94
92172.94
92172.94
92172.94
92723.62
92723.62
92723.62
92723.62
92723.62
92398.25
92398.25
92398.25
92398.25
92398.25
91797.69
91797.69
91797.69
91797.69
91797.69
92082.88
92082.88
92082.88
92082.88
92082.88
91391.96
91391.96
91391.96
91391.96
91391.96
91814.35
91814.35
91814.35
91814.35
91814.35
92433.06
92433.06
92433.06
92433.06
92433.06
92185.98
92185.98
92185.98
92185.98
92185.98
92086.87
92086.87
92086.87
92086.87
92086.87
92302.88
92302.88
92302.88
92302.88
92302.88
91632.67
91632.67
91632.67
91632.67
91632.67
91792
91792
91792
91792
91792
92399.17
92399.17
92399.17
92399.17
92399.17
92129.8
92129.8
92129.8
92129.8
92129.8
92106.35
92106.35
92106.35
92106.35
92106.35
92352.26
92352.26
92352.26
92352.26
92352.26
91683.74
91683.74
91683.74
91683.74
91683.74
91739.89
91739.89
91739.89
91739.89
91739.89
92377.52
92377.52
92377.52
92377.52
92377.52
92112.41
92112.41
92112.41
92112.41
92112.41
92112.08
92112.08
92112.08
92112.08
92112.08
92376.24
92376.24
92376.24
92376.24
92376.24
91740.16
91740.16
91740.16
91740.16
91740.16
91686.26
91686.26
91686.26
91686.26
91686.26
92354.49
92354.49
92354.49
92354.49
92354.49
92109.01
92109.01
92109.01
92109.01
92109.01
92130.51
92130.51
92130.51
92130.51
92130.51
92392.25
92392.25
92392.25
92392.25
92392.25
91793.63
91793.63
91793.63
91793.63
91793.63
91638.64
91638.64
91638.64
91638.64
91638.64
92309.08
92309.08
92309.08
92309.08
92309.08
92091.13
92091.13
92091.13
92091.13
92091.13
92177.72
92177.72
92177.72
92177.72
92177.72
92426.61
92426.61
92426.61
92426.61
92426.61
91808.11
91808.11
91808.11
91808.11
91808.11
91385.34
91385.34
91385.34
91385.34
91385.34
92074.17
92074.17
92074.17
92074.17
92074.17
91790.46
91790.46
91790.46
91790.46
91790.46
92378.12
92378.12
92378.12
92378.12
92378.12
92704.06
92704.06
92704.06
92704.06
92704.06
92153.34
92153.34
92153.34
92153.34
92153.34
91517.07
91517.07
91517.07
91517.07
91517.07
91300.21
91300.21
91300.21
91300.21
91300.21
91952.54
91952.54
91952.54
91952.54
91952.54
92402.73
92402.73
92402.73
92402.73
92402.73
92122.28
92122.28
92122.28
92122.28
92122.28
91541.72
91541.72
91541.72
91541.72
91541.72
91791.6
91791.6
91791.6
91791.6
91791.6
91141.25
91141.25
91141.25
91141.25
91141.25
91596.73
91596.73
91596.73
91596.73
91596.73
92125.05
92125.05
92125.05
92125.05
92125.05
91900.52
91900.52
91900.52
91900.52
91900.52
91800.13
91800.13
91800.13
91800.13
91800.13
92008.79
92008.79
92008.79
92008.79
92008.79
91382.17
91382.17
91382.17
91382.17
91382.17
91539.54
91539.54
91539.54
91539.54
91539.54
92099.81
92099.81
92099.81
92099.81
92099.81
91855.2
91855.2
91855.2
91855.2
91855.2
91843.15
91843.15
91843.15
91843.15
91843.15
92081.93
92081.93
92081.93
92081.93
92081.93
91460.65
91460.65
91460.65
91460.65
91460.65
91500.65
91500.65
91500.65
91500.65
91500.65
92091.77
92091.77
92091.77
92091.77
92091.77
91850.51
91850.51
91850.51
91850.51
91850.51
91849.8
91849.8
91849.8
91849.8
91849.8
92089.74
92089.74
92089.74
92089.74
92089.74
91500.34
91500.34
91500.34
91500.34
91500.34
91460.4
91460.4
91460.4
91460.4
91460.4
92069.98
92069.98
92069.98
92069.98
92069.98
91831.31
91831.31
91831.31
91831.31
91831.31
91854.82
91854.82
91854.82
91854.82
91854.82
92096.75
92096.75
92096.75
92096.75
92096.75
91537.55
91537.55
91537.55
91537.55
91537.55
91380.07
91380.07
91380.07
91380.07
91380.07
92006.96
92006.96
92006.96
92006.96
92006.96
91796.75
91796.75
91796.75
91796.75
91796.75
91898.02
91898.02
91898.02
91898.02
91898.02
92124.56
92124.56
92124.56
92124.56
92124.56
91597.1
91597.1
91597.1
91597.1
91597.1
91140.87
91140.87
91140.87
91140.87
91140.87
91788.73
91788.73
91788.73
91788.73
91788.73
91538.99
91538.99
91538.99
91538.99
91538.99
92119.89
92119.89
92119.89
92119.89
92119.89
92402.24
92402.24
92402.24
92402.24
92402.24
91952.02
91952.02
91952.02
91952.02
91952.02
91296.74
91296.74
91296.74
91296.74
91296.74
91094.21
91094.21
91094.21
91094.21
91094.21
91778.34
91778.34
91778.34
91778.34
91778.34
92141.92
92141.92
92141.92
92141.92
92141.92
91903.68
91903.68
91903.68
91903.68
91903.68
91365.04
91365.04
91365.04
91365.04
91365.04
91567.46
91567.46
91567.46
91567.46
91567.46
90953.85
90953.85
90953.85
90953.85
90953.85
91424.95
91424.95
91424.95
91424.95
91424.95
91886.37
91886.37
91886.37
91886.37
91886.37
91683.37
91683.37
91683.37
91683.37
91683.37
91573.87
91573.87
91573.87
91573.87
91573.87
91790.76
91790.76
91790.76
91790.76
91790.76
91167.04
91167.04
91167.04
91167.04
91167.04
91303
91303
91303
91303
91303
91846.04
91846.04
91846.04
91846.04
91846.04
91621.63
91621.63
91621.63
91621.63
91621.63
91597.89
91597.89
91597.89
91597.89
91597.89
91842.24
91842.24
91842.24
91842.24
91842.24
91247.65
91247.65
91247.65
91247.65
91247.65
91250.97
91250.97
91250.97
91250.97
91250.97
91810.99
91810.99
91810.99
91810.99
91810.99
91605.01
91605.01
91605.01
91605.01
91605.01
91604.09
91604.09
91604.09
91604.09
91604.09
91809.77
91809.77
91809.77
91809.77
91809.77
91251.19
91251.19
91251.19
91251.19
91251.19
91247.74
91247.74
91247.74
91247.74
91247.74
91843.54
91843.54
91843.54
91843.54
91843.54
91598.42
91598.42
91598.42
91598.42
91598.42
91621.38
91621.38
91621.38
91621.38
91621.38
91844.06
91844.06
91844.06
91844.06
91844.06
91301.72
91301.72
91301.72
91301.72
91301.72
91166.17
91166.17
91166.17
91166.17
91166.17
91790.9
91790.9
91790.9
91790.9
91790.9
91573.18
91573.18
91573.18
91573.18
91573.18
91683.53
91683.53
91683.53
91683.53
91683.53
91888.53
91888.53
91888.53
91888.53
91888.53
91426.99
91426.99
91426.99
91426.99
91426.99
90955.43
90955.43
90955.43
90955.43
90955.43
91566.84
91566.84
91566.84
91566.84
91566.84
91364.08
91364.08
91364.08
91364.08
91364.08
91903.26
91903.26
91903.26
91903.26
91903.26
92142.03
92142.03
92142.03
92142.03
92142.03
91778.41
91778.41
91778.41
91778.41
91778.41
91094.21
91094.21
91094.21
91094.21
91094.21
90900.39
90900.39
90900.39
90900.39
90900.39
91610.02
91610.02
91610.02
91610.02
91610.02
91883.95
91883.95
91883.95
91883.95
91883.95
91673.88
91673.88
91673.88
91673.88
91673.88
91184.33
91184.33
91184.33
91184.33
91184.33
91347.6
91347.6
91347.6
91347.6
91347.6
90766.01
90766.01
90766.01
90766.01
90766.01
91227.69
91227.69
91227.69
91227.69
91227.69
91649.87
91649.87
91649.87
91649.87
91649.87
91460.85
91460.85
91460.85
91460.85
91460.85
91357.33
91357.33
91357.33
91357.33
91357.33
91580.76
91580.76
91580.76
91580.76
91580.76
90987.08
90987.08
90987.08
90987.08
90987.08
91091.93
91091.93
91091.93
91091.93
91091.93
91621.98
91621.98
91621.98
91621.98
91621.98
91417.65
91417.65
91417.65
91417.65
91417.65
91399.31
91399.31
91399.31
91399.31
91399.31
91651.59
91651.59
91651.59
91651.59
91651.59
91080.12
91080.12
91080.12
91080.12
91080.12
91056.65
91056.65
91056.65
91056.65
91056.65
91604.32
91604.32
91604.32
91604.32
91604.32
91419.69
91419.69
91419.69
91419.69
91419.69
91419.08
91419.08
91419.08
91419.08
91419.08
91603.69
91603.69
91603.69
91603.69
91603.69
91057.79
91057.79
91057.79
91057.79
91057.79
91081.29
91081.29
91081.29
91081.29
91081.29
91666.01
91666.01
91666.01
91666.01
91666.01
91412.33
91412.33
91412.33
91412.33
91412.33
91417.44
91417.44
91417.44
91417.44
91417.44
91621.2
91621.2
91621.2
91621.2
91621.2
91090.95
91090.95
91090.95
91090.95
91090.95
90987.8
90987.8
90987.8
90987.8
90987.8
91582.76
91582.76
91582.76
91582.76
91582.76
91358.99
91358.99
91358.99
91358.99
91358.99
91463.51
91463.51
91463.51
91463.51
91463.51
91654.16
91654.16
91654.16
91654.16
91654.16
91230.07
91230.07
91230.07
91230.07
91230.07
90770.79
90770.79
90770.79
90770.79
90770.79
91349.63
91349.63
91349.63
91349.63
91349.63
91185.05
91185.05
91185.05
91185.05
91185.05
91675.41
91675.41
91675.41
91675.41
91675.41
91884.65
91884.65
91884.65
91884.65
91884.65
91610.84
91610.84
91610.84
91610.84
91610.84
90904.02
90904.02
90904.02
90904.02
90904.02
90719.6
90719.6
90719.6
90719.6
90719.6
91439.03
91439.03
91439.03
91439.03
91439.03
91661.5
91661.5
91661.5
91661.5
91661.5
91478.79
91478.79
91478.79
91478.79
91478.79
91056.19
91056.19
91056.19
91056.19
91056.19
91180.08
91180.08
91180.08
91180.08
91180.08
90631.48
90631.48
90631.48
90631.48
90631.48
91077.37
91077.37
91077.37
91077.37
91077.37
91479.39
91479.39
91479.39
91479.39
91479.39
91290.22
91290.22
91290.22
91290.22
91290.22
91199.98
91199.98
91199.98
91199.98
91199.98
91425.74
91425.74
91425.74
91425.74
91425.74
90847.24
90847.24
90847.24
90847.24
90847.24
90923.74
90923.74
90923.74
90923.74
90923.74
91432.24
91432.24
91432.24
91432.24
91432.24
91241.55
91241.55
91241.55
91241.55
91241.55
91231.5
91231.5
91231.5
91231.5
91231.5
91482.92
91482.92
91482.92
91482.92
91482.92
90901.06
90901.06
90901.06
90901.06
90901.06
90874.73
90874.73
90874.73
90874.73
90874.73
91413.53
91413.53
91413.53
91413.53
91413.53
91236.18
91236.18
91236.18
91236.18
91236.18
91235.9
91235.9
91235.9
91235.9
91235.9
91412.71
91412.71
91412.71
91412.71
91412.71
90874.82
90874.82
90874.82
90874.82
90874.82
90900.12
90900.12
90900.12
90900.12
90900.12
91483.42
91483.42
91483.42
91483.42
91483.42
91230.61
91230.61
91230.61
91230.61
91230.61
91240.19
91240.19
91240.19
91240.19
91240.19
91435.31
91435.31
91435.31
91435.31
91435.31
90917.77
90917.77
90917.77
90917.77
90917.77
90840.58
90840.58
90840.58
90840.58
90840.58
91420.14
91420.14
91420.14
91420.14
91420.14
91193.88
91193.88
91193.88
91193.88
91193.88
91298.63
91298.63
91298.63
91298.63
91298.63
91489.89
91489.89
91489.89
91489.89
91489.89
91085.97
91085.97
91085.97
91085.97
91085.97
90641.74
90641.74
90641.74
90641.74
90641.74
91188.66
91188.66
91188.66
91188.66
91188.66
91061.1
91061.1
91061.1
91061.1
91061.1
91497.77
91497.77
91497.77
91497.77
91497.77
91681.06
91681.06
91681.06
91681.06
91681.06
91458.9
91458.9
91458.9
91458.9
91458.9
90739.06
90739.06
90739.06
90739.06
90739.06
90557.13
90557.13
90557.13
90557.13
90557.13
91254.1
91254.1
91254.1
91254.1
91254.1
91461.95
91461.95
91461.95
91461.95
91461.95
91302.61
91302.61
91302.61
91302.61
91302.61
90922.29
90922.29
90922.29
90922.29
90922.29
91005.29
91005.29
91005.29
91005.29
91005.29
90487.96
90487.96
90487.96
90487.96
90487.96
90906.55
90906.55
90906.55
90906.55
90906.55
91313.74
91313.74
91313.74
91313.74
91313.74
91111.75
91111.75
91111.75
91111.75
91111.75
91012.56
91012.56
91012.56
91012.56
91012.56
91229.82
91229.82
91229.82
91229.82
91229.82
90667.3
90667.3
90667.3
90667.3
90667.3
90741.79
90741.79
90741.79
90741.79
90741.79
91244.28
91244.28
91244.28
91244.28
91244.28
91051.33
91051.33
91051.33
91051.33
91051.33
91047.3
91047.3
91047.3
91047.3
91047.3
91292.16
91292.16
91292.16
91292.16
91292.16
90716.06
90716.06
90716.06
90716.06
90716.06
90701.23
90701.23
90701.23
90701.23
90701.23
91225.61
91225.61
91225.61
91225.61
91225.61
91050.78
91050.78
91050.78
91050.78
91050.78
91050.95
91050.95
91050.95
91050.95
91050.95
91225.25
91225.25
91225.25
91225.25
91225.25
90703.75
90703.75
90703.75
90703.75
90703.75
90716.13
90716.13
90716.13
90716.13
90716.13
91293.92
91293.92
91293.92
91293.92
91293.92
91048.26
91048.26
91048.26
91048.26
91048.26
91051.53
91051.53
91051.53
91051.53
91051.53
91239.21
91239.21
91239.21
91239.21
91239.21
90754.24
90754.24
90754.24
90754.24
90754.24
90679.93
90679.93
90679.93
90679.93
90679.93
91243.06
91243.06
91243.06
91243.06
91243.06
91024.81
91024.81
91024.81
91024.81
91024.81
91103.37
91103.37
91103.37
91103.37
91103.37
91306.42
91306.42
91306.42
91306.42
91306.42
90897.44
90897.44
90897.44
90897.44
90897.44
90477.96
90477.96
90477.96
90477.96
90477.96
90992.84
90992.84
90992.84
90992.84
90992.84
90903.92
90903.92
90903.92
90903.92
90903.92
91267.38
91267.38
91267.38
91267.38
91267.38
91426.97
91426.97
91426.97
91426.97
91426.97
91219.51
91219.51
91219.51
91219.51
91219.51
90522.61
90522.61
90522.61
90522.61
90522.61
90364.38
90364.38
90364.38
90364.38
90364.38
91018.24
91018.24
91018.24
91018.24
91018.24
91233.54
91233.54
91233.54
91233.54
91233.54
91093.45
91093.45
91093.45
91093.45
91093.45
90764.94
90764.94
90764.94
90764.94
90764.94
90831.07
90831.07
90831.07
90831.07
90831.07
90347.2
90347.2
90347.2
90347.2
90347.2
90707.8
90707.8
90707.8
90707.8
90707.8
91133.64
91133.64
91133.64
91133.64
91133.64
90931.5
90931.5
90931.5
90931.5
90931.5
90861.62
90861.62
90861.62
90861.62
90861.62
91058.57
91058.57
91058.57
91058.57
91058.57
90523.36
90523.36
90523.36
90523.36
90523.36
90595.33
90595.33
90595.33
90595.33
90595.33
91088.81
91088.81
91088.81
91088.81
91088.81
90896.82
90896.82
90896.82
90896.82
90896.82
90905.05
90905.05
90905.05
90905.05
90905.05
91131.3
91131.3
91131.3
91131.3
91131.3
90577.54
90577.54
90577.54
90577.54
90577.54
90585.73
90585.73
90585.73
90585.73
90585.73
91088.4
91088.4
91088.4
91088.4
91088.4
90909.91
90909.91
90909.91
90909.91
90909.91
90910
90910
90910
90910
90910
91086.04
91086.04
91086.04
91086.04
91086.04
90584.5
90584.5
90584.5
90584.5
90584.5
90575.35
90575.35
90575.35
90575.35
90575.35
91114.69
91114.69
91114.69
91114.69
91114.69
90887.83
90887.83
90887.83
90887.83
90887.83
90896.05
90896.05
90896.05
90896.05
90896.05
91085.7
91085.7
91085.7
91085.7
91085.7
90593.84
90593.84
90593.84
90593.84
90593.84
90519.82
90519.82
90519.82
90519.82
90519.82
91056.49
91056.49
91056.49
91056.49
91056.49
90857.95
90857.95
90857.95
90857.95
90857.95
90929.43
90929.43
90929.43
90929.43
90929.43
91137.4
91137.4
91137.4
91137.4
91137.4
90710.04
90710.04
90710.04
90710.04
90710.04
90343.47
90343.47
90343.47
90343.47
90343.47
90826.99
90826.99
90826.99
90826.99
90826.99
90762.04
90762.04
90762.04
90762.04
90762.04
91091.87
91091.87
91091.87
91091.87
91091.87
91233.5
91233.5
91233.5
91233.5
91233.5
91018.14
91018.14
91018.14
91018.14
91018.14
90361.4
90361.4
90361.4
90361.4
90361.4
90215.75
90215.75
90215.75
90215.75
90215.75
90830.71
90830.71
90830.71
90830.71
90830.71
91079.3
91079.3
91079.3
91079.3
91079.3
90949.6
90949.6
90949.6
90949.6
90949.6
90668.22
90668.22
90668.22
90668.22
90668.22
90744.66
90744.66
90744.66
90744.66
90744.66
90289.58
90289.58
90289.58
90289.58
90289.58
90547.03
90547.03
90547.03
90547.03
90547.03
90959.66
90959.66
90959.66
90959.66
90959.66
90801.18
90801.18
90801.18
90801.18
90801.18
90749.13
90749.13
90749.13
90749.13
90749.13
90928.96
90928.96
90928.96
90928.96
90928.96
90417.06
90417.06
90417.06
90417.06
90417.06
90456.17
90456.17
90456.17
90456.17
90456.17
90911.71
90911.71
90911.71
90911.71
90911.71
90750.15
90750.15
90750.15
90750.15
90750.15
90731.92
90731.92
90731.92
90731.92
90731.92
90907.35
90907.35
90907.35
90907.35
90907.35
90421.43
90421.43
90421.43
90421.43
90421.43
90453.58
90453.58
90453.58
90453.58
90453.58
90932.16
90932.16
90932.16
90932.16
90932.16
90750.93
90750.93
90750.93
90750.93
90750.93
90750.66
90750.66
90750.66
90750.66
90750.66
90930.91
90930.91
90930.91
90930.91
90930.91
90453.16
90453.16
90453.16
90453.16
90453.16
90421.04
90421.04
90421.04
90421.04
90421.04
90909.5
90909.5
90909.5
90909.5
90909.5
90733.53
90733.53
90733.53
90733.53
90733.53
90750.34
90750.34
90750.34
90750.34
90750.34
90911.3
90911.3
90911.3
90911.3
90911.3
90455.55
90455.55
90455.55
90455.55
90455.55
90414.5
90414.5
90414.5
90414.5
90414.5
90928.71
90928.71
90928.71
90928.71
90928.71
90747.71
90747.71
90747.71
90747.71
90747.71
90801.74
90801.74
90801.74
90801.74
90801.74
90965.58
90965.58
90965.58
90965.58
90965.58
90551.02
90551.02
90551.02
90551.02
90551.02
90288.04
90288.04
90288.04
90288.04
90288.04
90742.31
90742.31
90742.31
90742.31
90742.31
90667.13
90667.13
90667.13
90667.13
90667.13
90949.86
90949.86
90949.86
90949.86
90949.86
91079.53
91079.53
91079.53
91079.53
91079.53
90830.68
90830.68
90830.68
90830.68
90830.68
90215.98
90215.98
90215.98
90215.98
90215.98
90086.99
90086.99
90086.99
90086.99
90086.99
90663.58
90663.58
90663.58
90663.58
90663.58
90906.01
90906.01
90906.01
90906.01
90906.01
90774.52
90774.52
90774.52
90774.52
90774.52
90542.12
90542.12
90542.12
90542.12
90542.12
90662.51
90662.51
90662.51
90662.51
90662.51
90240.91
90240.91
90240.91
90240.91
90240.91
90367.98
90367.98
90367.98
90367.98
90367.98
90712.03
90712.03
90712.03
90712.03
90712.03
90627.46
90627.46
90627.46
90627.46
90627.46
90622.27
90622.27
90622.27
90622.27
90622.27
90820.12
90820.12
90820.12
90820.12
90820.12
90356.36
90356.36
90356.36
90356.36
90356.36
90324.98
90324.98
90324.98
90324.98
90324.98
90682.59
90682.59
90682.59
90682.59
90682.59
90597.61
90597.61
90597.61
90597.61
90597.61
90586.27
90586.27
90586.27
90586.27
90586.27
90705.37
90705.37
90705.37
90705.37
90705.37
90311.63
90311.63
90311.63
90311.63
90311.63
90375.1
90375.1
90375.1
90375.1
90375.1
90827.66
90827.66
90827.66
90827.66
90827.66
90640.71
90640.71
90640.71
90640.71
90640.71
90639.95
90639.95
90639.95
90639.95
90639.95
90827.47
90827.47
90827.47
90827.47
90827.47
90375.68
90375.68
90375.68
90375.68
90375.68
90313.28
90313.28
90313.28
90313.28
90313.28
90725.56
90725.56
90725.56
90725.56
90725.56
90605.97
90605.97
90605.97
90605.97
90605.97
90598.9
90598.9
90598.9
90598.9
90598.9
90685.73
90685.73
90685.73
90685.73
90685.73
90324.5
90324.5
90324.5
90324.5
90324.5
90353.64
90353.64
90353.64
90353.64
90353.64
90819.33
90819.33
90819.33
90819.33
90819.33
90622.49
90622.49
90622.49
90622.49
90622.49
90631.05
90631.05
90631.05
90631.05
90631.05
90719.48
90719.48
90719.48
90719.48
90719.48
90373.35
90373.35
90373.35
90373.35
90373.35
90241.9
90241.9
90241.9
90241.9
90241.9
90662.2
90662.2
90662.2
90662.2
90662.2
90542.8
90542.8
90542.8
90542.8
90542.8
90776.19
90776.19
90776.19
90776.19
90776.19
90906.47
90906.47
90906.47
90906.47
90906.47
90663.76
90663.76
90663.76
90663.76
90663.76
90090.53
90090.53
90090.53
90090.53
90090.53
89964.99
89964.99
89964.99
89964.99
89964.99
90501.47
90501.47
90501.47
90501.47
90501.47
90740.14
90740.14
90740.14
90740.14
90740.14
90616.77
90616.77
90616.77
90616.77
90616.77
90462.4
90462.4
90462.4
90462.4
90462.4
90616.87
90616.87
90616.87
90616.87
90616.87
90228.7
90228.7
90228.7
90228.7
90228.7
90256.98
90256.98
90256.98
90256.98
90256.98
90506.11
90506.11
90506.11
90506.11
90506.11
90496.36
90496.36
90496.36
90496.36
90496.36
90560.66
90560.66
90560.66
90560.66
90560.66
90814.69
90814.69
90814.69
90814.69
90814.69
90368.56
90368.56
90368.56
90368.56
90368.56
90236.9
90236.9
90236.9
90236.9
90236.9
90452.86
90452.86
90452.86
90452.86
90452.86
90452.27
90452.27
90452.27
90452.27
90452.27
90460.87
90460.87
90460.87
90460.87
90460.87
90533.96
90533.96
90533.96
90533.96
90533.96
90177.55
90177.55
90177.55
90177.55
90177.55
90261.78
90261.78
90261.78
90261.78
90261.78
90698.37
90698.37
90698.37
90698.37
90698.37
90511.24
90511.24
90511.24
90511.24
90511.24
90509.52
90509.52
90509.52
90509.52
90509.52
90694.97
90694.97
90694.97
90694.97
90694.97
90258.53
90258.53
90258.53
90258.53
90258.53
90177.7
90177.7
90177.7
90177.7
90177.7
90535.04
90535.04
90535.04
90535.04
90535.04
90461.29
90461.29
90461.29
90461.29
90461.29
90452.81
90452.81
90452.81
90452.81
90452.81
90459.97
90459.97
90459.97
90459.97
90459.97
90221.39
90221.39
90221.39
90221.39
90221.39
90347.82
90347.82
90347.82
90347.82
90347.82
90796.19
90796.19
90796.19
90796.19
90796.19
90544.66
90544.66
90544.66
90544.66
90544.66
90506.07
90506.07
90506.07
90506.07
90506.07
90521.31
90521.31
90521.31
90521.31
90521.31
90270.1
90270.1
90270.1
90270.1
90270.1
90238.06
90238.06
90238.06
90238.06
90238.06
90625.9
90625.9
90625.9
90625.9
90625.9
90477.95
90477.95
90477.95
90477.95
90477.95
90651.27
90651.27
90651.27
90651.27
90651.27
90774.86
90774.86
90774.86
90774.86
90774.86
90536
90536
90536
90536
90536
89999.64
89999.64
89999.64
89999.64
89999.64
89858.88
89858.88
89858.88
89858.88
89858.88
90343.75
90343.75
90343.75
90343.75
90343.75
90567.41
90567.41
90567.41
90567.41
90567.41
90479.45
90479.45
90479.45
90479.45
90479.45
90357.74
90357.74
90357.74
90357.74
90357.74
90500.58
90500.58
90500.58
90500.58
90500.58
90131.7
90131.7
90131.7
90131.7
90131.7
90124.18
90124.18
90124.18
90124.18
90124.18
90308.58
90308.58
90308.58
90308.58
90308.58
90350.55
90350.55
90350.55
90350.55
90350.55
90457.65
90457.65
90457.65
90457.65
90457.65
90751.31
90751.31
90751.31
90751.31
90751.31
90295.68
90295.68
90295.68
90295.68
90295.68
90098.57
90098.57
90098.57
90098.57
90098.57
90250.89
90250.89
90250.89
90250.89
90250.89
90311.67
90311.67
90311.67
90311.67
90311.67
90336.76
90336.76
90336.76
90336.76
90336.76
90381.23
90381.23
90381.23
90381.23
90381.23
90044.99
90044.99
90044.99
90044.99
90044.99
90132.76
90132.76
90132.76
90132.76
90132.76
90563.86
90563.86
90563.86
90563.86
90563.86
90393.02
90393.02
90393.02
90393.02
90393.02
90390.75
90390.75
90390.75
90390.75
90390.75
90559.13
90559.13
90559.13
90559.13
90559.13
90135.06
90135.06
90135.06
90135.06
90135.06
90049.03
90049.03
90049.03
90049.03
90049.03
90385.29
90385.29
90385.29
90385.29
90385.29
90340.23
90340.23
90340.23
90340.23
90340.23
90315.69
90315.69
90315.69
90315.69
90315.69
90258.21
90258.21
90258.21
90258.21
90258.21
90112.71
90112.71
90112.71
90112.71
90112.71
90304.93
90304.93
90304.93
90304.93
90304.93
90762.94
90762.94
90762.94
90762.94
90762.94
90471.84
90471.84
90471.84
90471.84
90471.84
90350.4
90350.4
90350.4
90350.4
90350.4
90308.93
90308.93
90308.93
90308.93
90308.93
90123.36
90123.36
90123.36
90123.36
90123.36
90127.26
90127.26
90127.26
90127.26
90127.26
90495.73
90495.73
90495.73
90495.73
90495.73
90348.18
90348.18
90348.18
90348.18
90348.18
90456.87
90456.87
90456.87
90456.87
90456.87
90545.01
90545.01
90545.01
90545.01
90545.01
90321.44
90321.44
90321.44
90321.44
90321.44
89836.84
89836.84
89836.84
89836.84
89836.84
89718.51
89718.51
89718.51
89718.51
89718.51
90141.67
90141.67
90141.67
90141.67
90141.67
90343.64
90343.64
90343.64
90343.64
90343.64
90307.36
90307.36
90307.36
90307.36
90307.36
90213.2
90213.2
90213.2
90213.2
90213.2
90332.62
90332.62
90332.62
90332.62
90332.62
90000.14
90000.14
90000.14
90000.14
90000.14
89988.42
89988.42
89988.42
89988.42
89988.42
90129.8
90129.8
90129.8
90129.8
90129.8
90196.42
90196.42
90196.42
90196.42
90196.42
90348.35
90348.35
90348.35
90348.35
90348.35
90607.63
90607.63
90607.63
90607.63
90607.63
90166.13
90166.13
90166.13
90166.13
90166.13
89971.58
89971.58
89971.58
89971.58
89971.58
90120.67
90120.67
90120.67
90120.67
90120.67
90194.86
90194.86
90194.86
90194.86
90194.86
90233.35
90233.35
90233.35
90233.35
90233.35
90269.79
90269.79
90269.79
90269.79
90269.79
89955.27
89955.27
89955.27
89955.27
89955.27
90025.41
90025.41
90025.41
90025.41
90025.41
90425.37
90425.37
90425.37
90425.37
90425.37
90288.15
90288.15
90288.15
90288.15
90288.15
90285.07
90285.07
90285.07
90285.07
90285.07
90420.24
90420.24
90420.24
90420.24
90420.24
90022.18
90022.18
90022.18
90022.18
90022.18
89953.32
89953.32
89953.32
89953.32
89953.32
90255.42
90255.42
90255.42
90255.42
90255.42
90218.46
90218.46
90218.46
90218.46
90218.46
90194.46
90194.46
90194.46
90194.46
90194.46
90123.29
90123.29
90123.29
90123.29
90123.29
89967.41
89967.41
89967.41
89967.41
89967.41
90156.2
90156.2
90156.2
90156.2
90156.2
90599.88
90599.88
90599.88
90599.88
90599.88
90344.34
90344.34
90344.34
90344.34
90344.34
90195.96
90195.96
90195.96
90195.96
90195.96
90131.07
90131.07
90131.07
90131.07
90131.07
89988.82
89988.82
89988.82
89988.82
89988.82
89997.09
89997.09
89997.09
89997.09
89997.09
90329.96
90329.96
90329.96
90329.96
90329.96
90211.69
90211.69
90211.69
90211.69
90211.69
90307.03
90307.03
90307.03
90307.03
90307.03
90344.55
90344.55
90344.55
90344.55
90344.55
90142.6
90142.6
90142.6
90142.6
90142.6
89718.46
89718.46
89718.46
89718.46
89718.46
89592.69
89592.69
89592.69
89592.69
89592.69
89964.13
89964.13
89964.13
89964.13
89964.13
90167.63
90167.63
90167.63
90167.63
90167.63
90181.32
90181.32
90181.32
90181.32
90181.32
90105.33
90105.33
90105.33
90105.33
90105.33
90169.32
90169.32
90169.32
90169.32
90169.32
89888.83
89888.83
89888.83
89888.83
89888.83
89876.92
89876.92
89876.92
89876.92
89876.92
90003.41
90003.41
90003.41
90003.41
90003.41
90082.09
90082.09
90082.09
90082.09
90082.09
90219.4
90219.4
90219.4
90219.4
90219.4
90361.83
90361.83
90361.83
90361.83
90361.83
90005.41
90005.41
90005.41
90005.41
90005.41
89867.51
89867.51
89867.51
89867.51
89867.51
90022.88
90022.88
90022.88
90022.88
90022.88
90083.73
90083.73
90083.73
90083.73
90083.73
90099.47
90099.47
90099.47
90099.47
90099.47
90125.02
90125.02
90125.02
90125.02
90125.02
89831.41
89831.41
89831.41
89831.41
89831.41
89882.84
89882.84
89882.84
89882.84
89882.84
90244.47
90244.47
90244.47
90244.47
90244.47
90157
90157
90157
90157
90157
90154.79
90154.79
90154.79
90154.79
90154.79
90243.28
90243.28
90243.28
90243.28
90243.28
89882.11
89882.11
89882.11
89882.11
89882.11
89830.14
89830.14
89830.14
89830.14
89830.14
90125.16
90125.16
90125.16
90125.16
90125.16
90099.49
90099.49
90099.49
90099.49
90099.49
90085.25
90085.25
90085.25
90085.25
90085.25
90026.43
90026.43
90026.43
90026.43
90026.43
89865.15
89865.15
89865.15
89865.15
89865.15
89998.67
89998.67
89998.67
89998.67
89998.67
90357.2
90357.2
90357.2
90357.2
90357.2
90216.98
90216.98
90216.98
90216.98
90216.98
90081.41
90081.41
90081.41
90081.41
90081.41
90004.46
90004.46
90004.46
90004.46
90004.46
89878.13
89878.13
89878.13
89878.13
89878.13
89886.87
89886.87
89886.87
89886.87
89886.87
90166.44
90166.44
90166.44
90166.44
90166.44
90103.4
90103.4
90103.4
90103.4
90103.4
90181.28
90181.28
90181.28
90181.28
90181.28
90168.55
90168.55
90168.55
90168.55
90168.55
89964.23
89964.23
89964.23
89964.23
89964.23
89592.9
89592.9
89592.9
89592.9
89592.9
89464.71
89464.71
89464.71
89464.71
89464.71
89805.95
89805.95
89805.95
89805.95
89805.95
89944.65
89944.65
89944.65
89944.65
89944.65
89992.69
89992.69
89992.69
89992.69
89992.69
89934.02
89934.02
89934.02
89934.02
89934.02
89959.18
89959.18
89959.18
89959.18
89959.18
89753.08
89753.08
89753.08
89753.08
89753.08
89741.62
89741.62
89741.62
89741.62
89741.62
89829.57
89829.57
89829.57
89829.57
89829.57
89910.38
89910.38
89910.38
89910.38
89910.38
90012.12
90012.12
90012.12
90012.12
90012.12
90049.97
90049.97
90049.97
90049.97
90049.97
89863.7
89863.7
89863.7
89863.7
89863.7
89806.25
89806.25
89806.25
89806.25
89806.25
89920.19
89920.19
89920.19
89920.19
89920.19
89948.02
89948.02
89948.02
89948.02
89948.02
89943.17
89943.17
89943.17
89943.17
89943.17
89961.29
89961.29
89961.29
89961.29
89961.29
89754.28
89754.28
89754.28
89754.28
89754.28
89783.72
89783.72
89783.72
89783.72
89783.72
90042.44
90042.44
90042.44
90042.44
90042.44
90011.66
90011.66
90011.66
90011.66
90011.66
90009.99
90009.99
90009.99
90009.99
90009.99
90043.78
90043.78
90043.78
90043.78
90043.78
89784.69
89784.69
89784.69
89784.69
89784.69
89753.83
89753.83
89753.83
89753.83
89753.83
89975.63
89975.63
89975.63
89975.63
89975.63
89958.19
89958.19
89958.19
89958.19
89958.19
89950.28
89950.28
89950.28
89950.28
89950.28
89924.2
89924.2
89924.2
89924.2
89924.2
89804.88
89804.88
89804.88
89804.88
89804.88
89860.18
89860.18
89860.18
89860.18
89860.18
90048.23
90048.23
90048.23
90048.23
90048.23
90011.47
90011.47
90011.47
90011.47
90011.47
89910.68
89910.68
89910.68
89910.68
89910.68
89832.48
89832.48
89832.48
89832.48
89832.48
89743.38
89743.38
89743.38
89743.38
89743.38
89752.55
89752.55
89752.55
89752.55
89752.55
89954.73
89954.73
89954.73
89954.73
89954.73
89933.42
89933.42
89933.42
89933.42
89933.42
89993.98
89993.98
89993.98
89993.98
89993.98
89944.71
89944.71
89944.71
89944.71
89944.71
89804.94
89804.94
89804.94
89804.94
89804.94
89465.32
89465.32
89465.32
89465.32
89465.32
89325.09
89325.09
89325.09
89325.09
89325.09
89599.05
89599.05
89599.05
89599.05
89599.05
89701.67
89701.67
89701.67
89701.67
89701.67
89787.25
89787.25
89787.25
89787.25
89787.25
89756.5
89756.5
89756.5
89756.5
89756.5
89740.55
89740.55
89740.55
89740.55
89740.55
89622.47
89622.47
89622.47
89622.47
89622.47
89623.21
89623.21
89623.21
89623.21
89623.21
89654.04
89654.04
89654.04
89654.04
89654.04
89739.91
89739.91
89739.91
89739.91
89739.91
89791.57
89791.57
89791.57
89791.57
89791.57
89767.08
89767.08
89767.08
89767.08
89767.08
89735.34
89735.34
89735.34
89735.34
89735.34
89710.83
89710.83
89710.83
89710.83
89710.83
89765.23
89765.23
89765.23
89765.23
89765.23
89790.33
89790.33
89790.33
89790.33
89790.33
89769.3
89769.3
89769.3
89769.3
89769.3
89768.33
89768.33
89768.33
89768.33
89768.33
89620.39
89620.39
89620.39
89620.39
89620.39
89631.14
89631.14
89631.14
89631.14
89631.14
89762.83
89762.83
89762.83
89762.83
89762.83
89794.64
89794.64
89794.64
89794.64
89794.64
89794.45
89794.45
89794.45
89794.45
89794.45
89762.72
89762.72
89762.72
89762.72
89762.72
89626.4
89626.4
89626.4
89626.4
89626.4
89613.92
89613.92
89613.92
89613.92
89613.92
89762.81
89762.81
89762.81
89762.81
89762.81
89765.35
89765.35
89765.35
89765.35
89765.35
89789.28
89789.28
89789.28
89789.28
89789.28
89766.38
89766.38
89766.38
89766.38
89766.38
89692.82
89692.82
89692.82
89692.82
89692.82
89713.39
89713.39
89713.39
89713.39
89713.39
89747.12
89747.12
89747.12
89747.12
89747.12
89770.44
89770.44
89770.44
89770.44
89770.44
89744.77
89744.77
89744.77
89744.77
89744.77
89660.99
89660.99
89660.99
89660.99
89660.99
89625.56
89625.56
89625.56
89625.56
89625.56
89623.07
89623.07
89623.07
89623.07
89623.07
89737.6
89737.6
89737.6
89737.6
89737.6
89765.08
89765.08
89765.08
89765.08
89765.08
89808.33
89808.33
89808.33
89808.33
89808.33
89722.71
89722.71
89722.71
89722.71
89722.71
89620.83
89620.83
89620.83
89620.83
89620.83
89347.43
89347.43
89347.43
89347.43
89347.43
89199.71
89199.71
89199.71
89199.71
89199.71
89440.32
89440.32
89440.32
89440.32
89440.32
89464.12
89464.12
89464.12
89464.12
89464.12
89556.75
89556.75
89556.75
89556.75
89556.75
89532.67
89532.67
89532.67
89532.67
89532.67
89457.81
89457.81
89457.81
89457.81
89457.81
89517.95
89517.95
89517.95
89517.95
89517.95
89554.71
89554.71
89554.71
89554.71
89554.71
89477.88
89477.88
89477.88
89477.88
89477.88
89529.22
89529.22
89529.22
89529.22
89529.22
89512.9
89512.9
89512.9
89512.9
89512.9
89450.51
89450.51
89450.51
89450.51
89450.51
89616.5
89616.5
89616.5
89616.5
89616.5
89635.94
89635.94
89635.94
89635.94
89635.94
89579.63
89579.63
89579.63
89579.63
89579.63
89585.6
89585.6
89585.6
89585.6
89585.6
89565.34
89565.34
89565.34
89565.34
89565.34
89564.52
89564.52
89564.52
89564.52
89564.52
89559.7
89559.7
89559.7
89559.7
89559.7
89525.96
89525.96
89525.96
89525.96
89525.96
89477.45
89477.45
89477.45
89477.45
89477.45
89543.08
89543.08
89543.08
89543.08
89543.08
89544.43
89544.43
89544.43
89544.43
89544.43
89479.66
89479.66
89479.66
89479.66
89479.66
89528.77
89528.77
89528.77
89528.77
89528.77
89559.42
89559.42
89559.42
89559.42
89559.42
89564.28
89564.28
89564.28
89564.28
89564.28
89568.66
89568.66
89568.66
89568.66
89568.66
89591.21
89591.21
89591.21
89591.21
89591.21
89590.01
89590.01
89590.01
89590.01
89590.01
89653.83
89653.83
89653.83
89653.83
89653.83
89630.3
89630.3
89630.3
89630.3
89630.3
89466.23
89466.23
89466.23
89466.23
89466.23
89532.56
89532.56
89532.56
89532.56
89532.56
89544.21
89544.21
89544.21
89544.21
89544.21
89487.71
89487.71
89487.71
89487.71
89487.71
89557.08
89557.08
89557.08
89557.08
89557.08
89519.11
89519.11
89519.11
89519.11
89519.11
89455.34
89455.34
89455.34
89455.34
89455.34
89529.13
89529.13
89529.13
89529.13
89529.13
89540.14
89540.14
89540.14
89540.14
89540.14
89445.44
89445.44
89445.44
89445.44
89445.44
89424.3
89424.3
89424.3
89424.3
89424.3
89184.91
89184.91
89184.91
89184.91
89184.91
89087.37
89087.37
89087.37
89087.37
89087.37
89140.97
89140.97
89140.97
89140.97
89140.97
88965.64
88965.64
88965.64
88965.64
88965.64
88992.19
88992.19
88992.19
88992.19
88992.19
88988.05
88988.05
88988.05
88988.05
88988.05
89120.91
89120.91
89120.91
89120.91
89120.91
89465.14
89465.14
89465.14
89465.14
89465.14
89459.31
89459.31
89459.31
89459.31
89459.31
89140.59
89140.59
89140.59
89140.59
89140.59
89029.9
89029.9
89029.9
89029.9
89029.9
88980.01
88980.01
88980.01
88980.01
88980.01
89164.27
89164.27
89164.27
89164.27
89164.27
89573.41
89573.41
89573.41
89573.41
89573.41
89537.63
89537.63
89537.63
89537.63
89537.63
89208.81
89208.81
89208.81
89208.81
89208.81
89089.99
89089.99
89089.99
89089.99
89089.99
89085.79
89085.79
89085.79
89085.79
89085.79
89172.6
89172.6
89172.6
89172.6
89172.6
89501.85
89501.85
89501.85
89501.85
89501.85
89478.18
89478.18
89478.18
89478.18
89478.18
89154.3
89154.3
89154.3
89154.3
89154.3
89031.2
89031.2
89031.2
89031.2
89031.2
89035.22
89035.22
89035.22
89035.22
89035.22
89152.5
89152.5
89152.5
89152.5
89152.5
89472.81
89472.81
89472.81
89472.81
89472.81
89493.24
89493.24
89493.24
89493.24
89493.24
89153.4
89153.4
89153.4
89153.4
89153.4
89068.46
89068.46
89068.46
89068.46
89068.46
89090.34
89090.34
89090.34
89090.34
89090.34
89209.82
89209.82
89209.82
89209.82
89209.82
89536.14
89536.14
89536.14
89536.14
89536.14
89567.17
89567.17
89567.17
89567.17
89567.17
89158.88
89158.88
89158.88
89158.88
89158.88
88982.06
88982.06
88982.06
88982.06
88982.06
89036.54
89036.54
89036.54
89036.54
89036.54
89142.4
89142.4
89142.4
89142.4
89142.4
89457.74
89457.74
89457.74
89457.74
89457.74
89462.71
89462.71
89462.71
89462.71
89462.71
89118.36
89118.36
89118.36
89118.36
89118.36
88987.63
88987.63
88987.63
88987.63
88987.63
88990.72
88990.72
88990.72
88990.72
88990.72
88964.97
88964.97
88964.97
88964.97
88964.97
89142.2
89142.2
89142.2
89142.2
89142.2
89088.43
89088.43
89088.43
89088.43
89088.43
)
;

boundaryField
{
    electrolyteSides
    {
        type            zeroGradient;
    }
    electrolyte_to_fuel
    {
        type            zeroGradient;
    }
    electrolyte_to_air
    {
        type            zeroGradient;
    }
}


// ************************************************************************* //
