/*--------------------------------*- C++ -*----------------------------------*\
| =========                 |                                                 |
| \\      /  F ield         | OpenFOAM: The Open Source CFD Toolbox           |
|  \\    /   O peration     | Version:  4.0                                   |
|   \\  /    A nd           | Web:      www.OpenFOAM.org                      |
|    \\/     M anipulation  |                                                 |
\*---------------------------------------------------------------------------*/
FoamFile
{
    version     2.0;
    format      ascii;
    class       volScalarField;
    location    "60/electrolyte";
    object      iLC;
}
// * * * * * * * * * * * * * * * * * * * * * * * * * * * * * * * * * * * * * //

dimensions      [0 -2 0 0 0 1 0];

internalField   nonuniform List<scalar> 
4840
(
41060.27
41060.27
41060.27
41060.27
41060.27
41232.36
41232.36
41232.36
41232.36
41232.36
41401.65
41401.65
41401.65
41401.65
41401.65
41433.05
41433.05
41433.05
41433.05
41433.05
41432.08
41432.08
41432.08
41432.08
41432.08
41406.47
41406.47
41406.47
41406.47
41406.47
41278.77
41278.77
41278.77
41278.77
41278.77
41284.01
41284.01
41284.01
41284.01
41284.01
41408.24
41408.24
41408.24
41408.24
41408.24
41432.41
41432.41
41432.41
41432.41
41432.41
41432.45
41432.45
41432.45
41432.45
41432.45
41407.75
41407.75
41407.75
41407.75
41407.75
41282.28
41282.28
41282.28
41282.28
41282.28
41283.32
41283.32
41283.32
41283.32
41283.32
41408.15
41408.15
41408.15
41408.15
41408.15
41432.7
41432.7
41432.7
41432.7
41432.7
41432.65
41432.65
41432.65
41432.65
41432.65
41408.12
41408.12
41408.12
41408.12
41408.12
41283.1
41283.1
41283.1
41283.1
41283.1
41283.15
41283.15
41283.15
41283.15
41283.15
41408.13
41408.13
41408.13
41408.13
41408.13
41432.61
41432.61
41432.61
41432.61
41432.61
41432.62
41432.62
41432.62
41432.62
41432.62
41408.13
41408.13
41408.13
41408.13
41408.13
41283.12
41283.12
41283.12
41283.12
41283.12
41282.91
41282.91
41282.91
41282.91
41282.91
41407.98
41407.98
41407.98
41407.98
41407.98
41432.52
41432.52
41432.52
41432.52
41432.52
41432.59
41432.59
41432.59
41432.59
41432.59
41408.1
41408.1
41408.1
41408.1
41408.1
41282.86
41282.86
41282.86
41282.86
41282.86
41281.71
41281.71
41281.71
41281.71
41281.71
41407.39
41407.39
41407.39
41407.39
41407.39
41432.17
41432.17
41432.17
41432.17
41432.17
41432.5
41432.5
41432.5
41432.5
41432.5
41408.41
41408.41
41408.41
41408.41
41408.41
41284.29
41284.29
41284.29
41284.29
41284.29
41279.05
41279.05
41279.05
41279.05
41279.05
41406.67
41406.67
41406.67
41406.67
41406.67
41432.53
41432.53
41432.53
41432.53
41432.53
41433.83
41433.83
41433.83
41433.83
41433.83
41402.65
41402.65
41402.65
41402.65
41402.65
41234.23
41234.23
41234.23
41234.23
41234.23
41063.03
41063.03
41063.03
41063.03
41063.03
41015.03
41015.03
41015.03
41015.03
41015.03
41178.73
41178.73
41178.73
41178.73
41178.73
41362.93
41362.93
41362.93
41362.93
41362.93
41404.52
41404.52
41404.52
41404.52
41404.52
41403.81
41403.81
41403.81
41403.81
41403.81
41369.74
41369.74
41369.74
41369.74
41369.74
41236.23
41236.23
41236.23
41236.23
41236.23
41241.77
41241.77
41241.77
41241.77
41241.77
41372.29
41372.29
41372.29
41372.29
41372.29
41404.49
41404.49
41404.49
41404.49
41404.49
41404.16
41404.16
41404.16
41404.16
41404.16
41371.03
41371.03
41371.03
41371.03
41371.03
41239.1
41239.1
41239.1
41239.1
41239.1
41240.23
41240.23
41240.23
41240.23
41240.23
41371.54
41371.54
41371.54
41371.54
41371.54
41404.2
41404.2
41404.2
41404.2
41404.2
41403.88
41403.88
41403.88
41403.88
41403.88
41371.03
41371.03
41371.03
41371.03
41371.03
41239.32
41239.32
41239.32
41239.32
41239.32
41239.46
41239.46
41239.46
41239.46
41239.46
41371.07
41371.07
41371.07
41371.07
41371.07
41403.85
41403.85
41403.85
41403.85
41403.85
41403.86
41403.86
41403.86
41403.86
41403.86
41371.08
41371.08
41371.08
41371.08
41371.08
41239.47
41239.47
41239.47
41239.47
41239.47
41239.3
41239.3
41239.3
41239.3
41239.3
41371.24
41371.24
41371.24
41371.24
41371.24
41404.11
41404.11
41404.11
41404.11
41404.11
41404.19
41404.19
41404.19
41404.19
41404.19
41371.51
41371.51
41371.51
41371.51
41371.51
41240.1
41240.1
41240.1
41240.1
41240.1
41239.01
41239.01
41239.01
41239.01
41239.01
41371
41371
41371
41371
41371
41404.09
41404.09
41404.09
41404.09
41404.09
41404.52
41404.52
41404.52
41404.52
41404.52
41372.36
41372.36
41372.36
41372.36
41372.36
41241.9
41241.9
41241.9
41241.9
41241.9
41236.35
41236.35
41236.35
41236.35
41236.35
41369.83
41369.83
41369.83
41369.83
41369.83
41403.96
41403.96
41403.96
41403.96
41403.96
41404.78
41404.78
41404.78
41404.78
41404.78
41363.27
41363.27
41363.27
41363.27
41363.27
41179.53
41179.53
41179.53
41179.53
41179.53
41016.39
41016.39
41016.39
41016.39
41016.39
40942.07
40942.07
40942.07
40942.07
40942.07
41101.7
41101.7
41101.7
41101.7
41101.7
41318.04
41318.04
41318.04
41318.04
41318.04
41374.33
41374.33
41374.33
41374.33
41374.33
41374.64
41374.64
41374.64
41374.64
41374.64
41331.46
41331.46
41331.46
41331.46
41331.46
41185.56
41185.56
41185.56
41185.56
41185.56
41191.6
41191.6
41191.6
41191.6
41191.6
41334.91
41334.91
41334.91
41334.91
41334.91
41376.13
41376.13
41376.13
41376.13
41376.13
41375.62
41375.62
41375.62
41375.62
41375.62
41333.32
41333.32
41333.32
41333.32
41333.32
41189.04
41189.04
41189.04
41189.04
41189.04
41190.25
41190.25
41190.25
41190.25
41190.25
41334.21
41334.21
41334.21
41334.21
41334.21
41376.02
41376.02
41376.02
41376.02
41376.02
41375.87
41375.87
41375.87
41375.87
41375.87
41333.92
41333.92
41333.92
41333.92
41333.92
41189.67
41189.67
41189.67
41189.67
41189.67
41189.84
41189.84
41189.84
41189.84
41189.84
41334
41334
41334
41334
41334
41375.97
41375.97
41375.97
41375.97
41375.97
41375.98
41375.98
41375.98
41375.98
41375.98
41334.02
41334.02
41334.02
41334.02
41334.02
41189.85
41189.85
41189.85
41189.85
41189.85
41189.64
41189.64
41189.64
41189.64
41189.64
41333.94
41333.94
41333.94
41333.94
41333.94
41375.9
41375.9
41375.9
41375.9
41375.9
41376.02
41376.02
41376.02
41376.02
41376.02
41334.2
41334.2
41334.2
41334.2
41334.2
41190.18
41190.18
41190.18
41190.18
41190.18
41188.92
41188.92
41188.92
41188.92
41188.92
41333.24
41333.24
41333.24
41333.24
41333.24
41375.57
41375.57
41375.57
41375.57
41375.57
41376.15
41376.15
41376.15
41376.15
41376.15
41334.98
41334.98
41334.98
41334.98
41334.98
41191.71
41191.71
41191.71
41191.71
41191.71
41185.63
41185.63
41185.63
41185.63
41185.63
41331.51
41331.51
41331.51
41331.51
41331.51
41374.74
41374.74
41374.74
41374.74
41374.74
41374.52
41374.52
41374.52
41374.52
41374.52
41318.38
41318.38
41318.38
41318.38
41318.38
41102.42
41102.42
41102.42
41102.42
41102.42
40943.09
40943.09
40943.09
40943.09
40943.09
40858.03
40858.03
40858.03
40858.03
40858.03
41014.72
41014.72
41014.72
41014.72
41014.72
41270.48
41270.48
41270.48
41270.48
41270.48
41344.58
41344.58
41344.58
41344.58
41344.58
41346.92
41346.92
41346.92
41346.92
41346.92
41294.17
41294.17
41294.17
41294.17
41294.17
41137.37
41137.37
41137.37
41137.37
41137.37
41140.66
41140.66
41140.66
41140.66
41140.66
41299.03
41299.03
41299.03
41299.03
41299.03
41349.49
41349.49
41349.49
41349.49
41349.49
41348.74
41348.74
41348.74
41348.74
41348.74
41296.69
41296.69
41296.69
41296.69
41296.69
41139.54
41139.54
41139.54
41139.54
41139.54
41140.04
41140.04
41140.04
41140.04
41140.04
41297.44
41297.44
41297.44
41297.44
41297.44
41348.86
41348.86
41348.86
41348.86
41348.86
41348.7
41348.7
41348.7
41348.7
41348.7
41296.94
41296.94
41296.94
41296.94
41296.94
41139.39
41139.39
41139.39
41139.39
41139.39
41139.46
41139.46
41139.46
41139.46
41139.46
41296.87
41296.87
41296.87
41296.87
41296.87
41348.5
41348.5
41348.5
41348.5
41348.5
41348.51
41348.51
41348.51
41348.51
41348.51
41296.9
41296.9
41296.9
41296.9
41296.9
41139.47
41139.47
41139.47
41139.47
41139.47
41139.33
41139.33
41139.33
41139.33
41139.33
41296.65
41296.65
41296.65
41296.65
41296.65
41348.44
41348.44
41348.44
41348.44
41348.44
41348.85
41348.85
41348.85
41348.85
41348.85
41297.45
41297.45
41297.45
41297.45
41297.45
41139.99
41139.99
41139.99
41139.99
41139.99
41139.32
41139.32
41139.32
41139.32
41139.32
41296.5
41296.5
41296.5
41296.5
41296.5
41348.69
41348.69
41348.69
41348.69
41348.69
41349.5
41349.5
41349.5
41349.5
41349.5
41299.09
41299.09
41299.09
41299.09
41299.09
41140.74
41140.74
41140.74
41140.74
41140.74
41137.41
41137.41
41137.41
41137.41
41137.41
41294.2
41294.2
41294.2
41294.2
41294.2
41346.98
41346.98
41346.98
41346.98
41346.98
41344.74
41344.74
41344.74
41344.74
41344.74
41270.89
41270.89
41270.89
41270.89
41270.89
41015.46
41015.46
41015.46
41015.46
41015.46
40858.82
40858.82
40858.82
40858.82
40858.82
40779.66
40779.66
40779.66
40779.66
40779.66
40942.49
40942.49
40942.49
40942.49
40942.49
41227.5
41227.5
41227.5
41227.5
41227.5
41316.77
41316.77
41316.77
41316.77
41316.77
41321.43
41321.43
41321.43
41321.43
41321.43
41262.23
41262.23
41262.23
41262.23
41262.23
41094.98
41094.98
41094.98
41094.98
41094.98
41097.28
41097.28
41097.28
41097.28
41097.28
41267.49
41267.49
41267.49
41267.49
41267.49
41325.05
41325.05
41325.05
41325.05
41325.05
41324.19
41324.19
41324.19
41324.19
41324.19
41265.02
41265.02
41265.02
41265.02
41265.02
41096.72
41096.72
41096.72
41096.72
41096.72
41097.1
41097.1
41097.1
41097.1
41097.1
41266.1
41266.1
41266.1
41266.1
41266.1
41324.63
41324.63
41324.63
41324.63
41324.63
41324.47
41324.47
41324.47
41324.47
41324.47
41265.69
41265.69
41265.69
41265.69
41265.69
41097.24
41097.24
41097.24
41097.24
41097.24
41097.39
41097.39
41097.39
41097.39
41097.39
41265.9
41265.9
41265.9
41265.9
41265.9
41324.58
41324.58
41324.58
41324.58
41324.58
41324.6
41324.6
41324.6
41324.6
41324.6
41265.94
41265.94
41265.94
41265.94
41265.94
41097.43
41097.43
41097.43
41097.43
41097.43
41097.31
41097.31
41097.31
41097.31
41097.31
41265.69
41265.69
41265.69
41265.69
41265.69
41324.5
41324.5
41324.5
41324.5
41324.5
41324.73
41324.73
41324.73
41324.73
41324.73
41266.14
41266.14
41266.14
41266.14
41266.14
41097.4
41097.4
41097.4
41097.4
41097.4
41096.96
41096.96
41096.96
41096.96
41096.96
41265.17
41265.17
41265.17
41265.17
41265.17
41324.38
41324.38
41324.38
41324.38
41324.38
41324.99
41324.99
41324.99
41324.99
41324.99
41267.44
41267.44
41267.44
41267.44
41267.44
41097.21
41097.21
41097.21
41097.21
41097.21
41094.86
41094.86
41094.86
41094.86
41094.86
41262.1
41262.1
41262.1
41262.1
41262.1
41321.13
41321.13
41321.13
41321.13
41321.13
41316.32
41316.32
41316.32
41316.32
41316.32
41227.14
41227.14
41227.14
41227.14
41227.14
40942.18
40942.18
40942.18
40942.18
40942.18
40779.34
40779.34
40779.34
40779.34
40779.34
40707.78
40707.78
40707.78
40707.78
40707.78
40879.29
40879.29
40879.29
40879.29
40879.29
41187.61
41187.61
41187.61
41187.61
41187.61
41290.4
41290.4
41290.4
41290.4
41290.4
41298.31
41298.31
41298.31
41298.31
41298.31
41234.92
41234.92
41234.92
41234.92
41234.92
41058.91
41058.91
41058.91
41058.91
41058.91
41060.73
41060.73
41060.73
41060.73
41060.73
41239.75
41239.75
41239.75
41239.75
41239.75
41303.11
41303.11
41303.11
41303.11
41303.11
41302.66
41302.66
41302.66
41302.66
41302.66
41238.21
41238.21
41238.21
41238.21
41238.21
41060.98
41060.98
41060.98
41060.98
41060.98
41061.19
41061.19
41061.19
41061.19
41061.19
41238.7
41238.7
41238.7
41238.7
41238.7
41302.9
41302.9
41302.9
41302.9
41302.9
41302.8
41302.8
41302.8
41302.8
41302.8
41238.64
41238.64
41238.64
41238.64
41238.64
41061.42
41061.42
41061.42
41061.42
41061.42
41061.46
41061.46
41061.46
41061.46
41061.46
41238.73
41238.73
41238.73
41238.73
41238.73
41302.83
41302.83
41302.83
41302.83
41302.83
41302.86
41302.86
41302.86
41302.86
41302.86
41238.78
41238.78
41238.78
41238.78
41238.78
41061.49
41061.49
41061.49
41061.49
41061.49
41061.31
41061.31
41061.31
41061.31
41061.31
41238.5
41238.5
41238.5
41238.5
41238.5
41302.7
41302.7
41302.7
41302.7
41302.7
41302.85
41302.85
41302.85
41302.85
41302.85
41238.76
41238.76
41238.76
41238.76
41238.76
41061.05
41061.05
41061.05
41061.05
41061.05
41060.75
41060.75
41060.75
41060.75
41060.75
41237.98
41237.98
41237.98
41237.98
41237.98
41302.49
41302.49
41302.49
41302.49
41302.49
41303.21
41303.21
41303.21
41303.21
41303.21
41239.91
41239.91
41239.91
41239.91
41239.91
41060.92
41060.92
41060.92
41060.92
41060.92
41059.05
41059.05
41059.05
41059.05
41059.05
41235.03
41235.03
41235.03
41235.03
41235.03
41298.61
41298.61
41298.61
41298.61
41298.61
41290.95
41290.95
41290.95
41290.95
41290.95
41188.33
41188.33
41188.33
41188.33
41188.33
40880.3
40880.3
40880.3
40880.3
40880.3
40708.88
40708.88
40708.88
40708.88
40708.88
40645.29
40645.29
40645.29
40645.29
40645.29
40826.47
40826.47
40826.47
40826.47
40826.47
41154.61
41154.61
41154.61
41154.61
41154.61
41267.69
41267.69
41267.69
41267.69
41267.69
41278.34
41278.34
41278.34
41278.34
41278.34
41211.94
41211.94
41211.94
41211.94
41211.94
41029
41029
41029
41029
41029
41030.55
41030.55
41030.55
41030.55
41030.55
41216.44
41216.44
41216.44
41216.44
41216.44
41283.98
41283.98
41283.98
41283.98
41283.98
41283.44
41283.44
41283.44
41283.44
41283.44
41215.09
41215.09
41215.09
41215.09
41215.09
41030.73
41030.73
41030.73
41030.73
41030.73
41030.81
41030.81
41030.81
41030.81
41030.81
41215.26
41215.26
41215.26
41215.26
41215.26
41283.36
41283.36
41283.36
41283.36
41283.36
41283.14
41283.14
41283.14
41283.14
41283.14
41215.1
41215.1
41215.1
41215.1
41215.1
41030.67
41030.67
41030.67
41030.67
41030.67
41030.63
41030.63
41030.63
41030.63
41030.63
41214.89
41214.89
41214.89
41214.89
41214.89
41283.02
41283.02
41283.02
41283.02
41283.02
41283.05
41283.05
41283.05
41283.05
41283.05
41214.95
41214.95
41214.95
41214.95
41214.95
41030.66
41030.66
41030.66
41030.66
41030.66
41030.64
41030.64
41030.64
41030.64
41030.64
41215.24
41215.24
41215.24
41215.24
41215.24
41283.31
41283.31
41283.31
41283.31
41283.31
41283.39
41283.39
41283.39
41283.39
41283.39
41215.33
41215.33
41215.33
41215.33
41215.33
41030.82
41030.82
41030.82
41030.82
41030.82
41030.74
41030.74
41030.74
41030.74
41030.74
41215.06
41215.06
41215.06
41215.06
41215.06
41283.4
41283.4
41283.4
41283.4
41283.4
41284.03
41284.03
41284.03
41284.03
41284.03
41216.56
41216.56
41216.56
41216.56
41216.56
41030.67
41030.67
41030.67
41030.67
41030.67
41029.06
41029.06
41029.06
41029.06
41029.06
41211.96
41211.96
41211.96
41211.96
41211.96
41278.44
41278.44
41278.44
41278.44
41278.44
41267.92
41267.92
41267.92
41267.92
41267.92
41154.92
41154.92
41154.92
41154.92
41154.92
40827.04
40827.04
40827.04
40827.04
40827.04
40646.02
40646.02
40646.02
40646.02
40646.02
40590.13
40590.13
40590.13
40590.13
40590.13
40780.17
40780.17
40780.17
40780.17
40780.17
41124.86
41124.86
41124.86
41124.86
41124.86
41246.29
41246.29
41246.29
41246.29
41246.29
41259.46
41259.46
41259.46
41259.46
41259.46
41191.2
41191.2
41191.2
41191.2
41191.2
41002.75
41002.75
41002.75
41002.75
41002.75
41004.12
41004.12
41004.12
41004.12
41004.12
41195.26
41195.26
41195.26
41195.26
41195.26
41266.02
41266.02
41266.02
41266.02
41266.02
41265.7
41265.7
41265.7
41265.7
41265.7
41194.74
41194.74
41194.74
41194.74
41194.74
41005.09
41005.09
41005.09
41005.09
41005.09
41004.85
41004.85
41004.85
41004.85
41004.85
41194.3
41194.3
41194.3
41194.3
41194.3
41265.55
41265.55
41265.55
41265.55
41265.55
41265.62
41265.62
41265.62
41265.62
41265.62
41194.73
41194.73
41194.73
41194.73
41194.73
41005.01
41005.01
41005.01
41005.01
41005.01
41005
41005
41005
41005
41005
41194.79
41194.79
41194.79
41194.79
41194.79
41265.74
41265.74
41265.74
41265.74
41265.74
41265.76
41265.76
41265.76
41265.76
41265.76
41194.85
41194.85
41194.85
41194.85
41194.85
41005.03
41005.03
41005.03
41005.03
41005.03
41004.98
41004.98
41004.98
41004.98
41004.98
41194.71
41194.71
41194.71
41194.71
41194.71
41265.63
41265.63
41265.63
41265.63
41265.63
41265.58
41265.58
41265.58
41265.58
41265.58
41194.36
41194.36
41194.36
41194.36
41194.36
41004.86
41004.86
41004.86
41004.86
41004.86
41005.01
41005.01
41005.01
41005.01
41005.01
41194.65
41194.65
41194.65
41194.65
41194.65
41265.66
41265.66
41265.66
41265.66
41265.66
41266.06
41266.06
41266.06
41266.06
41266.06
41195.35
41195.35
41195.35
41195.35
41195.35
41004.22
41004.22
41004.22
41004.22
41004.22
41002.8
41002.8
41002.8
41002.8
41002.8
41191.21
41191.21
41191.21
41191.21
41191.21
41259.54
41259.54
41259.54
41259.54
41259.54
41246.49
41246.49
41246.49
41246.49
41246.49
41125.22
41125.22
41125.22
41125.22
41125.22
40780.77
40780.77
40780.77
40780.77
40780.77
40590.8
40590.8
40590.8
40590.8
40590.8
40541.86
40541.86
40541.86
40541.86
40541.86
40739.8
40739.8
40739.8
40739.8
40739.8
41098.63
41098.63
41098.63
41098.63
41098.63
41226.96
41226.96
41226.96
41226.96
41226.96
41242.43
41242.43
41242.43
41242.43
41242.43
41173.03
41173.03
41173.03
41173.03
41173.03
40980.6
40980.6
40980.6
40980.6
40980.6
40981.76
40981.76
40981.76
40981.76
40981.76
41176.52
41176.52
41176.52
41176.52
41176.52
41249.84
41249.84
41249.84
41249.84
41249.84
41249.72
41249.72
41249.72
41249.72
41249.72
41176.62
41176.62
41176.62
41176.62
41176.62
40982.93
40982.93
40982.93
40982.93
40982.93
40982.38
40982.38
40982.38
40982.38
40982.38
41175.69
41175.69
41175.69
41175.69
41175.69
41249.23
41249.23
41249.23
41249.23
41249.23
41249.43
41249.43
41249.43
41249.43
41249.43
41176.32
41176.32
41176.32
41176.32
41176.32
40982.29
40982.29
40982.29
40982.29
40982.29
40982.17
40982.17
40982.17
40982.17
40982.17
41175.95
41175.95
41175.95
41175.95
41175.95
41249.23
41249.23
41249.23
41249.23
41249.23
41249.26
41249.26
41249.26
41249.26
41249.26
41176
41176
41176
41176
41176
40982.2
40982.2
40982.2
40982.2
40982.2
40982.24
40982.24
40982.24
40982.24
40982.24
41176.07
41176.07
41176.07
41176.07
41176.07
41249.22
41249.22
41249.22
41249.22
41249.22
41249.26
41249.26
41249.26
41249.26
41249.26
41175.76
41175.76
41175.76
41175.76
41175.76
40982.38
40982.38
40982.38
40982.38
40982.38
40982.7
40982.7
40982.7
40982.7
40982.7
41176.42
41176.42
41176.42
41176.42
41176.42
41249.66
41249.66
41249.66
41249.66
41249.66
41249.85
41249.85
41249.85
41249.85
41249.85
41176.58
41176.58
41176.58
41176.58
41176.58
40981.82
40981.82
40981.82
40981.82
40981.82
40980.6
40980.6
40980.6
40980.6
40980.6
41173.01
41173.01
41173.01
41173.01
41173.01
41242.48
41242.48
41242.48
41242.48
41242.48
41227.12
41227.12
41227.12
41227.12
41227.12
41099.02
41099.02
41099.02
41099.02
41099.02
40740.42
40740.42
40740.42
40740.42
40740.42
40542.43
40542.43
40542.43
40542.43
40542.43
40499.44
40499.44
40499.44
40499.44
40499.44
40704.04
40704.04
40704.04
40704.04
40704.04
41074.49
41074.49
41074.49
41074.49
41074.49
41208.54
41208.54
41208.54
41208.54
41208.54
41225.94
41225.94
41225.94
41225.94
41225.94
41155.78
41155.78
41155.78
41155.78
41155.78
40960.62
40960.62
40960.62
40960.62
40960.62
40961.42
40961.42
40961.42
40961.42
40961.42
41158.94
41158.94
41158.94
41158.94
41158.94
41234.21
41234.21
41234.21
41234.21
41234.21
41234.33
41234.33
41234.33
41234.33
41234.33
41159.6
41159.6
41159.6
41159.6
41159.6
40963.04
40963.04
40963.04
40963.04
40963.04
40962.37
40962.37
40962.37
40962.37
40962.37
41158.85
41158.85
41158.85
41158.85
41158.85
41234.15
41234.15
41234.15
41234.15
41234.15
41234.45
41234.45
41234.45
41234.45
41234.45
41159.85
41159.85
41159.85
41159.85
41159.85
40963.56
40963.56
40963.56
40963.56
40963.56
40962.72
40962.72
40962.72
40962.72
40962.72
41158.72
41158.72
41158.72
41158.72
41158.72
41234.04
41234.04
41234.04
41234.04
41234.04
41234.07
41234.07
41234.07
41234.07
41234.07
41158.77
41158.77
41158.77
41158.77
41158.77
40962.77
40962.77
40962.77
40962.77
40962.77
40963.62
40963.62
40963.62
40963.62
40963.62
41159.85
41159.85
41159.85
41159.85
41159.85
41234.47
41234.47
41234.47
41234.47
41234.47
41234.26
41234.26
41234.26
41234.26
41234.26
41158.94
41158.94
41158.94
41158.94
41158.94
40962.62
40962.62
40962.62
40962.62
40962.62
40963.17
40963.17
40963.17
40963.17
40963.17
41159.68
41159.68
41159.68
41159.68
41159.68
41234.46
41234.46
41234.46
41234.46
41234.46
41234.15
41234.15
41234.15
41234.15
41234.15
41158.91
41158.91
41158.91
41158.91
41158.91
40961.3
40961.3
40961.3
40961.3
40961.3
40960.38
40960.38
40960.38
40960.38
40960.38
41155.59
41155.59
41155.59
41155.59
41155.59
41225.64
41225.64
41225.64
41225.64
41225.64
41208.15
41208.15
41208.15
41208.15
41208.15
41074.19
41074.19
41074.19
41074.19
41074.19
40703.75
40703.75
40703.75
40703.75
40703.75
40499.08
40499.08
40499.08
40499.08
40499.08
40460.98
40460.98
40460.98
40460.98
40460.98
40671.28
40671.28
40671.28
40671.28
40671.28
41051.63
41051.63
41051.63
41051.63
41051.63
41190.58
41190.58
41190.58
41190.58
41190.58
41210.06
41210.06
41210.06
41210.06
41210.06
41139.72
41139.72
41139.72
41139.72
41139.72
40942.89
40942.89
40942.89
40942.89
40942.89
40943.13
40943.13
40943.13
40943.13
40943.13
41142.53
41142.53
41142.53
41142.53
41142.53
41219.49
41219.49
41219.49
41219.49
41219.49
41220.14
41220.14
41220.14
41220.14
41220.14
41144.31
41144.31
41144.31
41144.31
41144.31
40946.04
40946.04
40946.04
40946.04
40946.04
40944.74
40944.74
40944.74
40944.74
40944.74
41142.74
41142.74
41142.74
41142.74
41142.74
41219.67
41219.67
41219.67
41219.67
41219.67
41220.11
41220.11
41220.11
41220.11
41220.11
41144.2
41144.2
41144.2
41144.2
41144.2
40945.6
40945.6
40945.6
40945.6
40945.6
40944.84
40944.84
40944.84
40944.84
40944.84
41143.07
41143.07
41143.07
41143.07
41143.07
41219.62
41219.62
41219.62
41219.62
41219.62
41219.64
41219.64
41219.64
41219.64
41219.64
41143.12
41143.12
41143.12
41143.12
41143.12
40944.87
40944.87
40944.87
40944.87
40944.87
40945.51
40945.51
40945.51
40945.51
40945.51
41144.08
41144.08
41144.08
41144.08
41144.08
41220.02
41220.02
41220.02
41220.02
41220.02
41219.66
41219.66
41219.66
41219.66
41219.66
41142.85
41142.85
41142.85
41142.85
41142.85
40944.63
40944.63
40944.63
40944.63
40944.63
40945.82
40945.82
40945.82
40945.82
40945.82
41144.11
41144.11
41144.11
41144.11
41144.11
41220
41220
41220
41220
41220
41219.65
41219.65
41219.65
41219.65
41219.65
41142.76
41142.76
41142.76
41142.76
41142.76
40943.34
40943.34
40943.34
40943.34
40943.34
40942.99
40942.99
40942.99
40942.99
40942.99
41139.81
41139.81
41139.81
41139.81
41139.81
41210.36
41210.36
41210.36
41210.36
41210.36
41191.14
41191.14
41191.14
41191.14
41191.14
41052.36
41052.36
41052.36
41052.36
41052.36
40672.27
40672.27
40672.27
40672.27
40672.27
40462.01
40462.01
40462.01
40462.01
40462.01
40428.23
40428.23
40428.23
40428.23
40428.23
40643.09
40643.09
40643.09
40643.09
40643.09
41031.25
41031.25
41031.25
41031.25
41031.25
41174.54
41174.54
41174.54
41174.54
41174.54
41195.88
41195.88
41195.88
41195.88
41195.88
41125.39
41125.39
41125.39
41125.39
41125.39
40927.67
40927.67
40927.67
40927.67
40927.67
40927.37
40927.37
40927.37
40927.37
40927.37
41127.82
41127.82
41127.82
41127.82
41127.82
41206.1
41206.1
41206.1
41206.1
41206.1
41206.81
41206.81
41206.81
41206.81
41206.81
41130.2
41130.2
41130.2
41130.2
41130.2
40930.77
40930.77
40930.77
40930.77
40930.77
40928.75
40928.75
40928.75
40928.75
40928.75
41127.62
41127.62
41127.62
41127.62
41127.62
41205.69
41205.69
41205.69
41205.69
41205.69
41206.11
41206.11
41206.11
41206.11
41206.11
41129
41129
41129
41129
41129
40928.62
40928.62
40928.62
40928.62
40928.62
40928.27
40928.27
40928.27
40928.27
40928.27
41128.55
41128.55
41128.55
41128.55
41128.55
41205.93
41205.93
41205.93
41205.93
41205.93
41205.94
41205.94
41205.94
41205.94
41205.94
41128.6
41128.6
41128.6
41128.6
41128.6
40928.29
40928.29
40928.29
40928.29
40928.29
40928.6
40928.6
40928.6
40928.6
40928.6
41129.15
41129.15
41129.15
41129.15
41129.15
41206.27
41206.27
41206.27
41206.27
41206.27
41205.75
41205.75
41205.75
41205.75
41205.75
41127.72
41127.72
41127.72
41127.72
41127.72
40928.77
40928.77
40928.77
40928.77
40928.77
40930.75
40930.75
40930.75
40930.75
40930.75
41130.17
41130.17
41130.17
41130.17
41130.17
41206.77
41206.77
41206.77
41206.77
41206.77
41206.18
41206.18
41206.18
41206.18
41206.18
41127.98
41127.98
41127.98
41127.98
41127.98
40927.48
40927.48
40927.48
40927.48
40927.48
40927.64
40927.64
40927.64
40927.64
40927.64
41125.39
41125.39
41125.39
41125.39
41125.39
41195.98
41195.98
41195.98
41195.98
41195.98
41174.8
41174.8
41174.8
41174.8
41174.8
41031.64
41031.64
41031.64
41031.64
41031.64
40643.7
40643.7
40643.7
40643.7
40643.7
40428.96
40428.96
40428.96
40428.96
40428.96
40398.69
40398.69
40398.69
40398.69
40398.69
40617.22
40617.22
40617.22
40617.22
40617.22
41011.78
41011.78
41011.78
41011.78
41011.78
41158.75
41158.75
41158.75
41158.75
41158.75
41181.79
41181.79
41181.79
41181.79
41181.79
41111.51
41111.51
41111.51
41111.51
41111.51
40913.34
40913.34
40913.34
40913.34
40913.34
40912.3
40912.3
40912.3
40912.3
40912.3
41113.39
41113.39
41113.39
41113.39
41113.39
41192.75
41192.75
41192.75
41192.75
41192.75
41193.72
41193.72
41193.72
41193.72
41193.72
41116.57
41116.57
41116.57
41116.57
41116.57
40916.11
40916.11
40916.11
40916.11
40916.11
40913.95
40913.95
40913.95
40913.95
40913.95
41113.91
41113.91
41113.91
41113.91
41113.91
41192.67
41192.67
41192.67
41192.67
41192.67
41193.3
41193.3
41193.3
41193.3
41193.3
41115.58
41115.58
41115.58
41115.58
41115.58
40913.84
40913.84
40913.84
40913.84
40913.84
40913.47
40913.47
40913.47
40913.47
40913.47
41114.98
41114.98
41114.98
41114.98
41114.98
41193.19
41193.19
41193.19
41193.19
41193.19
41193.21
41193.21
41193.21
41193.21
41193.21
41115.03
41115.03
41115.03
41115.03
41115.03
40913.5
40913.5
40913.5
40913.5
40913.5
40913.81
40913.81
40913.81
40913.81
40913.81
41115.58
41115.58
41115.58
41115.58
41115.58
41193.32
41193.32
41193.32
41193.32
41193.32
41192.71
41192.71
41192.71
41192.71
41192.71
41113.99
41113.99
41113.99
41113.99
41113.99
40913.98
40913.98
40913.98
40913.98
40913.98
40916.05
40916.05
40916.05
40916.05
40916.05
41116.5
41116.5
41116.5
41116.5
41116.5
41193.68
41193.68
41193.68
41193.68
41193.68
41192.82
41192.82
41192.82
41192.82
41192.82
41113.51
41113.51
41113.51
41113.51
41113.51
40912.4
40912.4
40912.4
40912.4
40912.4
40913.35
40913.35
40913.35
40913.35
40913.35
41111.52
41111.52
41111.52
41111.52
41111.52
41181.87
41181.87
41181.87
41181.87
41181.87
41158.99
41158.99
41158.99
41158.99
41158.99
41012.24
41012.24
41012.24
41012.24
41012.24
40617.89
40617.89
40617.89
40617.89
40617.89
40399.39
40399.39
40399.39
40399.39
40399.39
40371.96
40371.96
40371.96
40371.96
40371.96
40593.42
40593.42
40593.42
40593.42
40593.42
40993.39
40993.39
40993.39
40993.39
40993.39
41143.81
41143.81
41143.81
41143.81
41143.81
41168.54
41168.54
41168.54
41168.54
41168.54
41098.7
41098.7
41098.7
41098.7
41098.7
40900.3
40900.3
40900.3
40900.3
40900.3
40898.74
40898.74
40898.74
40898.74
40898.74
41100.01
41100.01
41100.01
41100.01
41100.01
41180.25
41180.25
41180.25
41180.25
41180.25
41181.47
41181.47
41181.47
41181.47
41181.47
41103.84
41103.84
41103.84
41103.84
41103.84
40902.22
40902.22
40902.22
40902.22
40902.22
40900.03
40900.03
40900.03
40900.03
40900.03
41100.83
41100.83
41100.83
41100.83
41100.83
41180.2
41180.2
41180.2
41180.2
41180.2
41180.91
41180.91
41180.91
41180.91
41180.91
41102.61
41102.61
41102.61
41102.61
41102.61
40899.75
40899.75
40899.75
40899.75
40899.75
40899.1
40899.1
40899.1
40899.1
40899.1
41101.28
41101.28
41101.28
41101.28
41101.28
41180.31
41180.31
41180.31
41180.31
41180.31
41180.33
41180.33
41180.33
41180.33
41180.33
41101.33
41101.33
41101.33
41101.33
41101.33
40899.12
40899.12
40899.12
40899.12
40899.12
40899.71
40899.71
40899.71
40899.71
40899.71
41102.39
41102.39
41102.39
41102.39
41102.39
41180.73
41180.73
41180.73
41180.73
41180.73
41180.22
41180.22
41180.22
41180.22
41180.22
41100.88
41100.88
41100.88
41100.88
41100.88
40900.05
40900.05
40900.05
40900.05
40900.05
40902.1
40902.1
40902.1
40902.1
40902.1
41103.7
41103.7
41103.7
41103.7
41103.7
41181.44
41181.44
41181.44
41181.44
41181.44
41180.3
41180.3
41180.3
41180.3
41180.3
41100.13
41100.13
41100.13
41100.13
41100.13
40898.8
40898.8
40898.8
40898.8
40898.8
40900.26
40900.26
40900.26
40900.26
40900.26
41098.68
41098.68
41098.68
41098.68
41098.68
41168.61
41168.61
41168.61
41168.61
41168.61
41144
41144
41144
41144
41144
40993.81
40993.81
40993.81
40993.81
40993.81
40594.05
40594.05
40594.05
40594.05
40594.05
40372.57
40372.57
40372.57
40372.57
40372.57
40347.56
40347.56
40347.56
40347.56
40347.56
40571.74
40571.74
40571.74
40571.74
40571.74
40976.56
40976.56
40976.56
40976.56
40976.56
41129.35
41129.35
41129.35
41129.35
41129.35
41155.38
41155.38
41155.38
41155.38
41155.38
41086.16
41086.16
41086.16
41086.16
41086.16
40887.83
40887.83
40887.83
40887.83
40887.83
40885.4
40885.4
40885.4
40885.4
40885.4
41086.79
41086.79
41086.79
41086.79
41086.79
41167.56
41167.56
41167.56
41167.56
41167.56
41169.1
41169.1
41169.1
41169.1
41169.1
41091.05
41091.05
41091.05
41091.05
41091.05
40888.3
40888.3
40888.3
40888.3
40888.3
40886.53
40886.53
40886.53
40886.53
40886.53
41088.67
41088.67
41088.67
41088.67
41088.67
41168.31
41168.31
41168.31
41168.31
41168.31
41168.98
41168.98
41168.98
41168.98
41168.98
41090.34
41090.34
41090.34
41090.34
41090.34
40887.12
40887.12
40887.12
40887.12
40887.12
40886.21
40886.21
40886.21
40886.21
40886.21
41089.05
41089.05
41089.05
41089.05
41089.05
41168.45
41168.45
41168.45
41168.45
41168.45
41168.47
41168.47
41168.47
41168.47
41168.47
41089.1
41089.1
41089.1
41089.1
41089.1
40886.26
40886.26
40886.26
40886.26
40886.26
40887.18
40887.18
40887.18
40887.18
40887.18
41090.34
41090.34
41090.34
41090.34
41090.34
41169
41169
41169
41169
41169
41168.41
41168.41
41168.41
41168.41
41168.41
41088.74
41088.74
41088.74
41088.74
41088.74
40886.77
40886.77
40886.77
40886.77
40886.77
40888.46
40888.46
40888.46
40888.46
40888.46
41091.14
41091.14
41091.14
41091.14
41091.14
41169.22
41169.22
41169.22
41169.22
41169.22
41167.5
41167.5
41167.5
41167.5
41167.5
41086.75
41086.75
41086.75
41086.75
41086.75
40885.27
40885.27
40885.27
40885.27
40885.27
40887.58
40887.58
40887.58
40887.58
40887.58
41085.97
41085.97
41085.97
41085.97
41085.97
41155.11
41155.11
41155.11
41155.11
41155.11
41129
41129
41129
41129
41129
40976.29
40976.29
40976.29
40976.29
40976.29
40571.5
40571.5
40571.5
40571.5
40571.5
40347.27
40347.27
40347.27
40347.27
40347.27
40323.62
40323.62
40323.62
40323.62
40323.62
40549.48
40549.48
40549.48
40549.48
40549.48
40957.84
40957.84
40957.84
40957.84
40957.84
41114.02
41114.02
41114.02
41114.02
41114.02
41142.04
41142.04
41142.04
41142.04
41142.04
41073.64
41073.64
41073.64
41073.64
41073.64
40875.3
40875.3
40875.3
40875.3
40875.3
40872.15
40872.15
40872.15
40872.15
40872.15
41072.88
41072.88
41072.88
41072.88
41072.88
41154.82
41154.82
41154.82
41154.82
41154.82
41157.15
41157.15
41157.15
41157.15
41157.15
41078.73
41078.73
41078.73
41078.73
41078.73
40874.82
40874.82
40874.82
40874.82
40874.82
40873.5
40873.5
40873.5
40873.5
40873.5
41075.92
41075.92
41075.92
41075.92
41075.92
41156.28
41156.28
41156.28
41156.28
41156.28
41157.07
41157.07
41157.07
41157.07
41157.07
41077.99
41077.99
41077.99
41077.99
41077.99
40873.89
40873.89
40873.89
40873.89
40873.89
40873.23
40873.23
40873.23
40873.23
40873.23
41076.33
41076.33
41076.33
41076.33
41076.33
41156.3
41156.3
41156.3
41156.3
41156.3
41156.32
41156.32
41156.32
41156.32
41156.32
41076.39
41076.39
41076.39
41076.39
41076.39
40873.27
40873.27
40873.27
40873.27
40873.27
40873.81
40873.81
40873.81
40873.81
40873.81
41077.87
41077.87
41077.87
41077.87
41077.87
41156.99
41156.99
41156.99
41156.99
41156.99
41156.27
41156.27
41156.27
41156.27
41156.27
41076.01
41076.01
41076.01
41076.01
41076.01
40873.43
40873.43
40873.43
40873.43
40873.43
40874.68
40874.68
40874.68
40874.68
40874.68
41078.57
41078.57
41078.57
41078.57
41078.57
41157.04
41157.04
41157.04
41157.04
41157.04
41155
41155
41155
41155
41155
41073.12
41073.12
41073.12
41073.12
41073.12
40872.42
40872.42
40872.42
40872.42
40872.42
40875.53
40875.53
40875.53
40875.53
40875.53
41073.81
41073.81
41073.81
41073.81
41073.81
41142.4
41142.4
41142.4
41142.4
41142.4
41114.68
41114.68
41114.68
41114.68
41114.68
40958.68
40958.68
40958.68
40958.68
40958.68
40550.58
40550.58
40550.58
40550.58
40550.58
40324.75
40324.75
40324.75
40324.75
40324.75
40302.25
40302.25
40302.25
40302.25
40302.25
40529.66
40529.66
40529.66
40529.66
40529.66
40941.27
40941.27
40941.27
40941.27
40941.27
41100.28
41100.28
41100.28
41100.28
41100.28
41130.02
41130.02
41130.02
41130.02
41130.02
41062.09
41062.09
41062.09
41062.09
41062.09
40863.48
40863.48
40863.48
40863.48
40863.48
40860.21
40860.21
40860.21
40860.21
40860.21
41061.42
41061.42
41061.42
41061.42
41061.42
41143.72
41143.72
41143.72
41143.72
41143.72
41146.05
41146.05
41146.05
41146.05
41146.05
41067.52
41067.52
41067.52
41067.52
41067.52
40863.31
40863.31
40863.31
40863.31
40863.31
40861.32
40861.32
40861.32
40861.32
40861.32
41064.13
41064.13
41064.13
41064.13
41064.13
41144.77
41144.77
41144.77
41144.77
41144.77
41145.47
41145.47
41145.47
41145.47
41145.47
41066.07
41066.07
41066.07
41066.07
41066.07
40861.07
40861.07
40861.07
40861.07
40861.07
40860.58
40860.58
40860.58
40860.58
40860.58
41064.76
41064.76
41064.76
41064.76
41064.76
41144.79
41144.79
41144.79
41144.79
41144.79
41144.82
41144.82
41144.82
41144.82
41144.82
41064.83
41064.83
41064.83
41064.83
41064.83
40860.62
40860.62
40860.62
40860.62
40860.62
40861.05
40861.05
40861.05
40861.05
40861.05
41066.17
41066.17
41066.17
41066.17
41066.17
41145.61
41145.61
41145.61
41145.61
41145.61
41144.81
41144.81
41144.81
41144.81
41144.81
41064.19
41064.19
41064.19
41064.19
41064.19
40861.36
40861.36
40861.36
40861.36
40861.36
40863.35
40863.35
40863.35
40863.35
40863.35
41067.52
41067.52
41067.52
41067.52
41067.52
41146.03
41146.03
41146.03
41146.03
41146.03
41143.8
41143.8
41143.8
41143.8
41143.8
41061.56
41061.56
41061.56
41061.56
41061.56
40860.37
40860.37
40860.37
40860.37
40860.37
40863.57
40863.57
40863.57
40863.57
40863.57
41062.16
41062.16
41062.16
41062.16
41062.16
41130.18
41130.18
41130.18
41130.18
41130.18
41100.6
41100.6
41100.6
41100.6
41100.6
40941.72
40941.72
40941.72
40941.72
40941.72
40530.36
40530.36
40530.36
40530.36
40530.36
40303.07
40303.07
40303.07
40303.07
40303.07
40279.96
40279.96
40279.96
40279.96
40279.96
40507.21
40507.21
40507.21
40507.21
40507.21
40920.37
40920.37
40920.37
40920.37
40920.37
41084.4
41084.4
41084.4
41084.4
41084.4
41116.68
41116.68
41116.68
41116.68
41116.68
41049.08
41049.08
41049.08
41049.08
41049.08
40849.48
40849.48
40849.48
40849.48
40849.48
40846.93
40846.93
40846.93
40846.93
40846.93
41048
41048
41048
41048
41048
41131.52
41131.52
41131.52
41131.52
41131.52
41134.11
41134.11
41134.11
41134.11
41134.11
41054.94
41054.94
41054.94
41054.94
41054.94
40850.17
40850.17
40850.17
40850.17
40850.17
40848.73
40848.73
40848.73
40848.73
40848.73
41051.49
41051.49
41051.49
41051.49
41051.49
41132.99
41132.99
41132.99
41132.99
41132.99
41133.82
41133.82
41133.82
41133.82
41133.82
41053.55
41053.55
41053.55
41053.55
41053.55
40848.79
40848.79
40848.79
40848.79
40848.79
40848.4
40848.4
40848.4
40848.4
40848.4
41052.48
41052.48
41052.48
41052.48
41052.48
41133.33
41133.33
41133.33
41133.33
41133.33
41133.36
41133.36
41133.36
41133.36
41133.36
41052.55
41052.55
41052.55
41052.55
41052.55
40848.45
40848.45
40848.45
40848.45
40848.45
40848.77
40848.77
40848.77
40848.77
40848.77
41053.52
41053.52
41053.52
41053.52
41053.52
41133.82
41133.82
41133.82
41133.82
41133.82
41133.02
41133.02
41133.02
41133.02
41133.02
41051.54
41051.54
41051.54
41051.54
41051.54
40848.77
40848.77
40848.77
40848.77
40848.77
40850.16
40850.16
40850.16
40850.16
40850.16
41054.9
41054.9
41054.9
41054.9
41054.9
41134.09
41134.09
41134.09
41134.09
41134.09
41131.58
41131.58
41131.58
41131.58
41131.58
41048.12
41048.12
41048.12
41048.12
41048.12
40847.06
40847.06
40847.06
40847.06
40847.06
40849.56
40849.56
40849.56
40849.56
40849.56
41049.13
41049.13
41049.13
41049.13
41049.13
41116.81
41116.81
41116.81
41116.81
41116.81
41084.68
41084.68
41084.68
41084.68
41084.68
40920.82
40920.82
40920.82
40920.82
40920.82
40507.92
40507.92
40507.92
40507.92
40507.92
40280.73
40280.73
40280.73
40280.73
40280.73
40253.95
40253.95
40253.95
40253.95
40253.95
40479
40479
40479
40479
40479
40892.89
40892.89
40892.89
40892.89
40892.89
41066.17
41066.17
41066.17
41066.17
41066.17
41102.56
41102.56
41102.56
41102.56
41102.56
41035.05
41035.05
41035.05
41035.05
41035.05
40833.78
40833.78
40833.78
40833.78
40833.78
40832.47
40832.47
40832.47
40832.47
40832.47
41033.24
41033.24
41033.24
41033.24
41033.24
41118.81
41118.81
41118.81
41118.81
41118.81
41121.65
41121.65
41121.65
41121.65
41121.65
41040.7
41040.7
41040.7
41040.7
41040.7
40836.33
40836.33
40836.33
40836.33
40836.33
40835.06
40835.06
40835.06
40835.06
40835.06
41037.34
41037.34
41037.34
41037.34
41037.34
41120.48
41120.48
41120.48
41120.48
41120.48
41121.25
41121.25
41121.25
41121.25
41121.25
41039.09
41039.09
41039.09
41039.09
41039.09
40834.94
40834.94
40834.94
40834.94
40834.94
40834.63
40834.63
40834.63
40834.63
40834.63
41038.17
41038.17
41038.17
41038.17
41038.17
41120.7
41120.7
41120.7
41120.7
41120.7
41120.73
41120.73
41120.73
41120.73
41120.73
41038.25
41038.25
41038.25
41038.25
41038.25
40834.67
40834.67
40834.67
40834.67
40834.67
40834.89
40834.89
40834.89
40834.89
40834.89
41038.85
41038.85
41038.85
41038.85
41038.85
41121.06
41121.06
41121.06
41121.06
41121.06
41120.49
41120.49
41120.49
41120.49
41120.49
41037.39
41037.39
41037.39
41037.39
41037.39
40835.09
40835.09
40835.09
40835.09
40835.09
40836.22
40836.22
40836.22
40836.22
40836.22
41040.58
41040.58
41040.58
41040.58
41040.58
41121.63
41121.63
41121.63
41121.63
41121.63
41118.86
41118.86
41118.86
41118.86
41118.86
41033.34
41033.34
41033.34
41033.34
41033.34
40832.57
40832.57
40832.57
40832.57
40832.57
40833.83
40833.83
40833.83
40833.83
40833.83
41035.08
41035.08
41035.08
41035.08
41035.08
41102.67
41102.67
41102.67
41102.67
41102.67
41066.43
41066.43
41066.43
41066.43
41066.43
40893.39
40893.39
40893.39
40893.39
40893.39
40479.72
40479.72
40479.72
40479.72
40479.72
40254.63
40254.63
40254.63
40254.63
40254.63
40218.28
40218.28
40218.28
40218.28
40218.28
40440.39
40440.39
40440.39
40440.39
40440.39
40856.19
40856.19
40856.19
40856.19
40856.19
41042.73
41042.73
41042.73
41042.73
41042.73
41084.24
41084.24
41084.24
41084.24
41084.24
41015.27
41015.27
41015.27
41015.27
41015.27
40814.11
40814.11
40814.11
40814.11
40814.11
40813.18
40813.18
40813.18
40813.18
40813.18
41012.98
41012.98
41012.98
41012.98
41012.98
41102.58
41102.58
41102.58
41102.58
41102.58
41105.65
41105.65
41105.65
41105.65
41105.65
41020.93
41020.93
41020.93
41020.93
41020.93
40817.99
40817.99
40817.99
40817.99
40817.99
40817.01
40817.01
40817.01
40817.01
40817.01
41018.42
41018.42
41018.42
41018.42
41018.42
41105.09
41105.09
41105.09
41105.09
41105.09
41105.75
41105.75
41105.75
41105.75
41105.75
41019.86
41019.86
41019.86
41019.86
41019.86
40817.39
40817.39
40817.39
40817.39
40817.39
40817.27
40817.27
40817.27
40817.27
40817.27
41019.49
41019.49
41019.49
41019.49
41019.49
41105.58
41105.58
41105.58
41105.58
41105.58
41105.61
41105.61
41105.61
41105.61
41105.61
41019.57
41019.57
41019.57
41019.57
41019.57
40817.31
40817.31
40817.31
40817.31
40817.31
40817.42
40817.42
40817.42
40817.42
40817.42
41019.82
41019.82
41019.82
41019.82
41019.82
41105.74
41105.74
41105.74
41105.74
41105.74
41105.16
41105.16
41105.16
41105.16
41105.16
41018.46
41018.46
41018.46
41018.46
41018.46
40817.22
40817.22
40817.22
40817.22
40817.22
40818.14
40818.14
40818.14
40818.14
40818.14
41021.02
41021.02
41021.02
41021.02
41021.02
41105.75
41105.75
41105.75
41105.75
41105.75
41102.47
41102.47
41102.47
41102.47
41102.47
41012.87
41012.87
41012.87
41012.87
41012.87
40813.02
40813.02
40813.02
40813.02
40813.02
40813.91
40813.91
40813.91
40813.91
40813.91
41015.11
41015.11
41015.11
41015.11
41015.11
41084
41084
41084
41084
41084
41042.44
41042.44
41042.44
41042.44
41042.44
40856.02
40856.02
40856.02
40856.02
40856.02
40440.22
40440.22
40440.22
40440.22
40440.22
40218.03
40218.03
40218.03
40218.03
40218.03
40150.19
40150.19
40150.19
40150.19
40150.19
40347.77
40347.77
40347.77
40347.77
40347.77
40739.93
40739.93
40739.93
40739.93
40739.93
40977.71
40977.71
40977.71
40977.71
40977.71
41039.67
41039.67
41039.67
41039.67
41039.67
40958.93
40958.93
40958.93
40958.93
40958.93
40775.36
40775.36
40775.36
40775.36
40775.36
40774.98
40774.98
40774.98
40774.98
40774.98
40958.67
40958.67
40958.67
40958.67
40958.67
41064.35
41064.35
41064.35
41064.35
41064.35
41068.06
41068.06
41068.06
41068.06
41068.06
40967.34
40967.34
40967.34
40967.34
40967.34
40781.39
40781.39
40781.39
40781.39
40781.39
40780.61
40780.61
40780.61
40780.61
40780.61
40965.29
40965.29
40965.29
40965.29
40965.29
41067.93
41067.93
41067.93
41067.93
41067.93
41068.5
41068.5
41068.5
41068.5
41068.5
40966.54
40966.54
40966.54
40966.54
40966.54
40781.04
40781.04
40781.04
40781.04
40781.04
40780.93
40780.93
40780.93
40780.93
40780.93
40966.3
40966.3
40966.3
40966.3
40966.3
41068.44
41068.44
41068.44
41068.44
41068.44
41068.48
41068.48
41068.48
41068.48
41068.48
40966.38
40966.38
40966.38
40966.38
40966.38
40780.97
40780.97
40780.97
40780.97
40780.97
40780.94
40780.94
40780.94
40780.94
40780.94
40966.41
40966.41
40966.41
40966.41
40966.41
41068.4
41068.4
41068.4
41068.4
41068.4
41067.91
41067.91
41067.91
41067.91
41067.91
40965.38
40965.38
40965.38
40965.38
40965.38
40780.54
40780.54
40780.54
40780.54
40780.54
40781.24
40781.24
40781.24
40781.24
40781.24
40967.19
40967.19
40967.19
40967.19
40967.19
41067.96
41067.96
41067.96
41067.96
41067.96
41064.56
41064.56
41064.56
41064.56
41064.56
40958.95
40958.95
40958.95
40958.95
40958.95
40775.31
40775.31
40775.31
40775.31
40775.31
40775.66
40775.66
40775.66
40775.66
40775.66
40959.19
40959.19
40959.19
40959.19
40959.19
41040.14
41040.14
41040.14
41040.14
41040.14
40978.49
40978.49
40978.49
40978.49
40978.49
40740.94
40740.94
40740.94
40740.94
40740.94
40349.08
40349.08
40349.08
40349.08
40349.08
40151.55
40151.55
40151.55
40151.55
40151.55
40050.39
40050.39
40050.39
40050.39
40050.39
40225.41
40225.41
40225.41
40225.41
40225.41
40588.3
40588.3
40588.3
40588.3
40588.3
40863.17
40863.17
40863.17
40863.17
40863.17
40953.6
40953.6
40953.6
40953.6
40953.6
40872.34
40872.34
40872.34
40872.34
40872.34
40709.71
40709.71
40709.71
40709.71
40709.71
40710.68
40710.68
40710.68
40710.68
40710.68
40877.38
40877.38
40877.38
40877.38
40877.38
40991.29
40991.29
40991.29
40991.29
40991.29
40994.99
40994.99
40994.99
40994.99
40994.99
40885.69
40885.69
40885.69
40885.69
40885.69
40718.06
40718.06
40718.06
40718.06
40718.06
40717.51
40717.51
40717.51
40717.51
40717.51
40884.34
40884.34
40884.34
40884.34
40884.34
40995.18
40995.18
40995.18
40995.18
40995.18
40995.44
40995.44
40995.44
40995.44
40995.44
40884.89
40884.89
40884.89
40884.89
40884.89
40717.43
40717.43
40717.43
40717.43
40717.43
40717.37
40717.37
40717.37
40717.37
40717.37
40884.81
40884.81
40884.81
40884.81
40884.81
40995.48
40995.48
40995.48
40995.48
40995.48
40995.52
40995.52
40995.52
40995.52
40995.52
40884.89
40884.89
40884.89
40884.89
40884.89
40717.42
40717.42
40717.42
40717.42
40717.42
40717.42
40717.42
40717.42
40717.42
40717.42
40885.02
40885.02
40885.02
40885.02
40885.02
40995.6
40995.6
40995.6
40995.6
40995.6
40995.23
40995.23
40995.23
40995.23
40995.23
40884.41
40884.41
40884.41
40884.41
40884.41
40717.56
40717.56
40717.56
40717.56
40717.56
40718.12
40718.12
40718.12
40718.12
40718.12
40885.72
40885.72
40885.72
40885.72
40885.72
40994.99
40994.99
40994.99
40994.99
40994.99
40991.39
40991.39
40991.39
40991.39
40991.39
40877.55
40877.55
40877.55
40877.55
40877.55
40710.9
40710.9
40710.9
40710.9
40710.9
40709.89
40709.89
40709.89
40709.89
40709.89
40872.51
40872.51
40872.51
40872.51
40872.51
40953.87
40953.87
40953.87
40953.87
40953.87
40863.65
40863.65
40863.65
40863.65
40863.65
40588.96
40588.96
40588.96
40588.96
40588.96
40226.28
40226.28
40226.28
40226.28
40226.28
40051.37
40051.37
40051.37
40051.37
40051.37
)
;

boundaryField
{
    electrolyteSides
    {
        type            zeroGradient;
    }
    electrolyte_to_fuel
    {
        type            zeroGradient;
    }
    electrolyte_to_air
    {
        type            zeroGradient;
    }
}


// ************************************************************************* //
