/*--------------------------------*- C++ -*----------------------------------*\
| =========                 |                                                 |
| \\      /  F ield         | OpenFOAM: The Open Source CFD Toolbox           |
|  \\    /   O peration     | Version:  4.0                                   |
|   \\  /    A nd           | Web:      www.OpenFOAM.org                      |
|    \\/     M anipulation  |                                                 |
\*---------------------------------------------------------------------------*/
FoamFile
{
    version     2.0;
    format      ascii;
    class       volScalarField;
    location    "120/electrolyte";
    object      iLC;
}
// * * * * * * * * * * * * * * * * * * * * * * * * * * * * * * * * * * * * * //

dimensions      [0 -2 0 0 0 1 0];

internalField   nonuniform List<scalar> 
4840
(
40994.19
40994.19
40994.19
40994.19
40994.19
41188.48
41188.48
41188.48
41188.48
41188.48
41399.88
41399.88
41399.88
41399.88
41399.88
41440.12
41440.12
41440.12
41440.12
41440.12
41440.41
41440.41
41440.41
41440.41
41440.41
41411.07
41411.07
41411.07
41411.07
41411.07
41267.38
41267.38
41267.38
41267.38
41267.38
41272.62
41272.62
41272.62
41272.62
41272.62
41412.98
41412.98
41412.98
41412.98
41412.98
41441.19
41441.19
41441.19
41441.19
41441.19
41441.32
41441.32
41441.32
41441.32
41441.32
41412.64
41412.64
41412.64
41412.64
41412.64
41271.35
41271.35
41271.35
41271.35
41271.35
41272.25
41272.25
41272.25
41272.25
41272.25
41412.99
41412.99
41412.99
41412.99
41412.99
41441.56
41441.56
41441.56
41441.56
41441.56
41441.52
41441.52
41441.52
41441.52
41441.52
41412.99
41412.99
41412.99
41412.99
41412.99
41272.11
41272.11
41272.11
41272.11
41272.11
41272.22
41272.22
41272.22
41272.22
41272.22
41413.02
41413.02
41413.02
41413.02
41413.02
41441.52
41441.52
41441.52
41441.52
41441.52
41441.52
41441.52
41441.52
41441.52
41441.52
41413.02
41413.02
41413.02
41413.02
41413.02
41272.19
41272.19
41272.19
41272.19
41272.19
41271.91
41271.91
41271.91
41271.91
41271.91
41412.85
41412.85
41412.85
41412.85
41412.85
41441.4
41441.4
41441.4
41441.4
41441.4
41441.44
41441.44
41441.44
41441.44
41441.44
41412.94
41412.94
41412.94
41412.94
41412.94
41271.72
41271.72
41271.72
41271.72
41271.72
41270.75
41270.75
41270.75
41270.75
41270.75
41412.27
41412.27
41412.27
41412.27
41412.27
41441.04
41441.04
41441.04
41441.04
41441.04
41441.32
41441.32
41441.32
41441.32
41441.32
41413.19
41413.19
41413.19
41413.19
41413.19
41272.99
41272.99
41272.99
41272.99
41272.99
41267.76
41267.76
41267.76
41267.76
41267.76
41411.32
41411.32
41411.32
41411.32
41411.32
41440.9
41440.9
41440.9
41440.9
41440.9
41440.96
41440.96
41440.96
41440.96
41440.96
41401
41401
41401
41401
41401
41190.77
41190.77
41190.77
41190.77
41190.77
40997.53
40997.53
40997.53
40997.53
40997.53
40989.1
40989.1
40989.1
40989.1
40989.1
41168.56
41168.56
41168.56
41168.56
41168.56
41367.29
41367.29
41367.29
41367.29
41367.29
41413.65
41413.65
41413.65
41413.65
41413.65
41413.94
41413.94
41413.94
41413.94
41413.94
41378.17
41378.17
41378.17
41378.17
41378.17
41239.44
41239.44
41239.44
41239.44
41239.44
41243.94
41243.94
41243.94
41243.94
41243.94
41380.3
41380.3
41380.3
41380.3
41380.3
41414.67
41414.67
41414.67
41414.67
41414.67
41414.45
41414.45
41414.45
41414.45
41414.45
41379.31
41379.31
41379.31
41379.31
41379.31
41241.85
41241.85
41241.85
41241.85
41241.85
41242.79
41242.79
41242.79
41242.79
41242.79
41379.73
41379.73
41379.73
41379.73
41379.73
41414.46
41414.46
41414.46
41414.46
41414.46
41414.16
41414.16
41414.16
41414.16
41414.16
41379.26
41379.26
41379.26
41379.26
41379.26
41241.93
41241.93
41241.93
41241.93
41241.93
41242.01
41242.01
41242.01
41242.01
41242.01
41379.28
41379.28
41379.28
41379.28
41379.28
41414.13
41414.13
41414.13
41414.13
41414.13
41414.14
41414.14
41414.14
41414.14
41414.14
41379.29
41379.29
41379.29
41379.29
41379.29
41242.02
41242.02
41242.02
41242.02
41242.02
41241.92
41241.92
41241.92
41241.92
41241.92
41379.48
41379.48
41379.48
41379.48
41379.48
41414.39
41414.39
41414.39
41414.39
41414.39
41414.45
41414.45
41414.45
41414.45
41414.45
41379.69
41379.69
41379.69
41379.69
41379.69
41242.66
41242.66
41242.66
41242.66
41242.66
41241.79
41241.79
41241.79
41241.79
41241.79
41379.28
41379.28
41379.28
41379.28
41379.28
41414.37
41414.37
41414.37
41414.37
41414.37
41414.7
41414.7
41414.7
41414.7
41414.7
41380.39
41380.39
41380.39
41380.39
41380.39
41244.1
41244.1
41244.1
41244.1
41244.1
41239.6
41239.6
41239.6
41239.6
41239.6
41378.28
41378.28
41378.28
41378.28
41378.28
41414.12
41414.12
41414.12
41414.12
41414.12
41413.95
41413.95
41413.95
41413.95
41413.95
41367.69
41367.69
41367.69
41367.69
41367.69
41169.44
41169.44
41169.44
41169.44
41169.44
40990.55
40990.55
40990.55
40990.55
40990.55
40922.12
40922.12
40922.12
40922.12
40922.12
41095.12
41095.12
41095.12
41095.12
41095.12
41325.69
41325.69
41325.69
41325.69
41325.69
41386.1
41386.1
41386.1
41386.1
41386.1
41387.4
41387.4
41387.4
41387.4
41387.4
41342.8
41342.8
41342.8
41342.8
41342.8
41192.46
41192.46
41192.46
41192.46
41192.46
41196.36
41196.36
41196.36
41196.36
41196.36
41345.15
41345.15
41345.15
41345.15
41345.15
41388.49
41388.49
41388.49
41388.49
41388.49
41388.17
41388.17
41388.17
41388.17
41388.17
41344.04
41344.04
41344.04
41344.04
41344.04
41194.76
41194.76
41194.76
41194.76
41194.76
41195.8
41195.8
41195.8
41195.8
41195.8
41344.84
41344.84
41344.84
41344.84
41344.84
41388.56
41388.56
41388.56
41388.56
41388.56
41388.44
41388.44
41388.44
41388.44
41388.44
41344.61
41344.61
41344.61
41344.61
41344.61
41195.31
41195.31
41195.31
41195.31
41195.31
41195.4
41195.4
41195.4
41195.4
41195.4
41344.65
41344.65
41344.65
41344.65
41344.65
41388.51
41388.51
41388.51
41388.51
41388.51
41388.52
41388.52
41388.52
41388.52
41388.52
41344.67
41344.67
41344.67
41344.67
41344.67
41195.42
41195.42
41195.42
41195.42
41195.42
41195.29
41195.29
41195.29
41195.29
41195.29
41344.63
41344.63
41344.63
41344.63
41344.63
41388.47
41388.47
41388.47
41388.47
41388.47
41388.55
41388.55
41388.55
41388.55
41388.55
41344.82
41344.82
41344.82
41344.82
41344.82
41195.72
41195.72
41195.72
41195.72
41195.72
41194.66
41194.66
41194.66
41194.66
41194.66
41343.97
41343.97
41343.97
41343.97
41343.97
41388.13
41388.13
41388.13
41388.13
41388.13
41388.52
41388.52
41388.52
41388.52
41388.52
41345.22
41345.22
41345.22
41345.22
41345.22
41196.48
41196.48
41196.48
41196.48
41196.48
41192.56
41192.56
41192.56
41192.56
41192.56
41342.87
41342.87
41342.87
41342.87
41342.87
41387.52
41387.52
41387.52
41387.52
41387.52
41386.32
41386.32
41386.32
41386.32
41386.32
41326.07
41326.07
41326.07
41326.07
41326.07
41095.89
41095.89
41095.89
41095.89
41095.89
40923.19
40923.19
40923.19
40923.19
40923.19
40838.03
40838.03
40838.03
40838.03
40838.03
41006.98
41006.98
41006.98
41006.98
41006.98
41279.24
41279.24
41279.24
41279.24
41279.24
41358.09
41358.09
41358.09
41358.09
41358.09
41361.26
41361.26
41361.26
41361.26
41361.26
41306.72
41306.72
41306.72
41306.72
41306.72
41144.44
41144.44
41144.44
41144.44
41144.44
41146.58
41146.58
41146.58
41146.58
41146.58
41310.03
41310.03
41310.03
41310.03
41310.03
41363.15
41363.15
41363.15
41363.15
41363.15
41362.63
41362.63
41362.63
41362.63
41362.63
41308.39
41308.39
41308.39
41308.39
41308.39
41145.85
41145.85
41145.85
41145.85
41145.85
41146.27
41146.27
41146.27
41146.27
41146.27
41309.1
41309.1
41309.1
41309.1
41309.1
41362.79
41362.79
41362.79
41362.79
41362.79
41362.64
41362.64
41362.64
41362.64
41362.64
41308.65
41308.65
41308.65
41308.65
41308.65
41145.61
41145.61
41145.61
41145.61
41145.61
41145.62
41145.62
41145.62
41145.62
41145.62
41308.45
41308.45
41308.45
41308.45
41308.45
41362.37
41362.37
41362.37
41362.37
41362.37
41362.38
41362.38
41362.38
41362.38
41362.38
41308.47
41308.47
41308.47
41308.47
41308.47
41145.63
41145.63
41145.63
41145.63
41145.63
41145.56
41145.56
41145.56
41145.56
41145.56
41308.37
41308.37
41308.37
41308.37
41308.37
41362.38
41362.38
41362.38
41362.38
41362.38
41362.77
41362.77
41362.77
41362.77
41362.77
41309.09
41309.09
41309.09
41309.09
41309.09
41146.22
41146.22
41146.22
41146.22
41146.22
41145.64
41145.64
41145.64
41145.64
41145.64
41308.21
41308.21
41308.21
41308.21
41308.21
41362.58
41362.58
41362.58
41362.58
41362.58
41363.17
41363.17
41363.17
41363.17
41363.17
41310.09
41310.09
41310.09
41310.09
41310.09
41146.66
41146.66
41146.66
41146.66
41146.66
41144.49
41144.49
41144.49
41144.49
41144.49
41306.77
41306.77
41306.77
41306.77
41306.77
41361.34
41361.34
41361.34
41361.34
41361.34
41358.27
41358.27
41358.27
41358.27
41358.27
41279.69
41279.69
41279.69
41279.69
41279.69
41007.75
41007.75
41007.75
41007.75
41007.75
40838.83
40838.83
40838.83
40838.83
40838.83
40759.25
40759.25
40759.25
40759.25
40759.25
40933.51
40933.51
40933.51
40933.51
40933.51
41235.65
41235.65
41235.65
41235.65
41235.65
41331.04
41331.04
41331.04
41331.04
41331.04
41336.56
41336.56
41336.56
41336.56
41336.56
41274.95
41274.95
41274.95
41274.95
41274.95
41102.15
41102.15
41102.15
41102.15
41102.15
41103.71
41103.71
41103.71
41103.71
41103.71
41278.78
41278.78
41278.78
41278.78
41278.78
41339.42
41339.42
41339.42
41339.42
41339.42
41338.79
41338.79
41338.79
41338.79
41338.79
41276.95
41276.95
41276.95
41276.95
41276.95
41103.37
41103.37
41103.37
41103.37
41103.37
41103.74
41103.74
41103.74
41103.74
41103.74
41278.06
41278.06
41278.06
41278.06
41278.06
41339.31
41339.31
41339.31
41339.31
41339.31
41339.15
41339.15
41339.15
41339.15
41339.15
41277.63
41277.63
41277.63
41277.63
41277.63
41103.88
41103.88
41103.88
41103.88
41103.88
41104
41104
41104
41104
41104
41277.76
41277.76
41277.76
41277.76
41277.76
41339.19
41339.19
41339.19
41339.19
41339.19
41339.21
41339.21
41339.21
41339.21
41339.21
41277.8
41277.8
41277.8
41277.8
41277.8
41104.03
41104.03
41104.03
41104.03
41104.03
41103.96
41103.96
41103.96
41103.96
41103.96
41277.64
41277.64
41277.64
41277.64
41277.64
41339.18
41339.18
41339.18
41339.18
41339.18
41339.4
41339.4
41339.4
41339.4
41339.4
41278.08
41278.08
41278.08
41278.08
41278.08
41104.06
41104.06
41104.06
41104.06
41104.06
41103.64
41103.64
41103.64
41103.64
41103.64
41277.13
41277.13
41277.13
41277.13
41277.13
41338.98
41338.98
41338.98
41338.98
41338.98
41339.33
41339.33
41339.33
41339.33
41339.33
41278.7
41278.7
41278.7
41278.7
41278.7
41103.58
41103.58
41103.58
41103.58
41103.58
41101.98
41101.98
41101.98
41101.98
41101.98
41274.81
41274.81
41274.81
41274.81
41274.81
41336.26
41336.26
41336.26
41336.26
41336.26
41330.57
41330.57
41330.57
41330.57
41330.57
41235.27
41235.27
41235.27
41235.27
41235.27
40933.09
40933.09
40933.09
40933.09
40933.09
40758.75
40758.75
40758.75
40758.75
40758.75
40686.57
40686.57
40686.57
40686.57
40686.57
40868.4
40868.4
40868.4
40868.4
40868.4
41193.57
41193.57
41193.57
41193.57
41193.57
41304.5
41304.5
41304.5
41304.5
41304.5
41313.45
41313.45
41313.45
41313.45
41313.45
41246.6
41246.6
41246.6
41246.6
41246.6
41065.96
41065.96
41065.96
41065.96
41065.96
41067.32
41067.32
41067.32
41067.32
41067.32
41250.54
41250.54
41250.54
41250.54
41250.54
41317.62
41317.62
41317.62
41317.62
41317.62
41317.28
41317.28
41317.28
41317.28
41317.28
41249.24
41249.24
41249.24
41249.24
41249.24
41067.66
41067.66
41067.66
41067.66
41067.66
41067.93
41067.93
41067.93
41067.93
41067.93
41250
41250
41250
41250
41250
41317.69
41317.69
41317.69
41317.69
41317.69
41317.56
41317.56
41317.56
41317.56
41317.56
41249.79
41249.79
41249.79
41249.79
41249.79
41068.11
41068.11
41068.11
41068.11
41068.11
41068.14
41068.14
41068.14
41068.14
41068.14
41249.87
41249.87
41249.87
41249.87
41249.87
41317.56
41317.56
41317.56
41317.56
41317.56
41317.58
41317.58
41317.58
41317.58
41317.58
41249.91
41249.91
41249.91
41249.91
41249.91
41068.16
41068.16
41068.16
41068.16
41068.16
41068
41068
41068
41068
41068
41249.65
41249.65
41249.65
41249.65
41249.65
41317.45
41317.45
41317.45
41317.45
41317.45
41317.64
41317.64
41317.64
41317.64
41317.64
41250.04
41250.04
41250.04
41250.04
41250.04
41067.78
41067.78
41067.78
41067.78
41067.78
41067.44
41067.44
41067.44
41067.44
41067.44
41249.03
41249.03
41249.03
41249.03
41249.03
41317.13
41317.13
41317.13
41317.13
41317.13
41317.72
41317.72
41317.72
41317.72
41317.72
41250.69
41250.69
41250.69
41250.69
41250.69
41067.51
41067.51
41067.51
41067.51
41067.51
41066.1
41066.1
41066.1
41066.1
41066.1
41246.72
41246.72
41246.72
41246.72
41246.72
41313.76
41313.76
41313.76
41313.76
41313.76
41305.05
41305.05
41305.05
41305.05
41305.05
41194.31
41194.31
41194.31
41194.31
41194.31
40869.46
40869.46
40869.46
40869.46
40869.46
40687.72
40687.72
40687.72
40687.72
40687.72
40623.46
40623.46
40623.46
40623.46
40623.46
40814.51
40814.51
40814.51
40814.51
40814.51
41159.48
41159.48
41159.48
41159.48
41159.48
41281.49
41281.49
41281.49
41281.49
41281.49
41293.31
41293.31
41293.31
41293.31
41293.31
41223.04
41223.04
41223.04
41223.04
41223.04
41035.86
41035.86
41035.86
41035.86
41035.86
41037.17
41037.17
41037.17
41037.17
41037.17
41227.07
41227.07
41227.07
41227.07
41227.07
41298.5
41298.5
41298.5
41298.5
41298.5
41297.98
41297.98
41297.98
41297.98
41297.98
41225.63
41225.63
41225.63
41225.63
41225.63
41037.24
41037.24
41037.24
41037.24
41037.24
41037.45
41037.45
41037.45
41037.45
41037.45
41226.26
41226.26
41226.26
41226.26
41226.26
41298.14
41298.14
41298.14
41298.14
41298.14
41297.84
41297.84
41297.84
41297.84
41297.84
41225.82
41225.82
41225.82
41225.82
41225.82
41037.19
41037.19
41037.19
41037.19
41037.19
41037.17
41037.17
41037.17
41037.17
41037.17
41225.75
41225.75
41225.75
41225.75
41225.75
41297.77
41297.77
41297.77
41297.77
41297.77
41297.79
41297.79
41297.79
41297.79
41297.79
41225.8
41225.8
41225.8
41225.8
41225.8
41037.2
41037.2
41037.2
41037.2
41037.2
41037.16
41037.16
41037.16
41037.16
41037.16
41225.96
41225.96
41225.96
41225.96
41225.96
41298.01
41298.01
41298.01
41298.01
41298.01
41298.16
41298.16
41298.16
41298.16
41298.16
41226.3
41226.3
41226.3
41226.3
41226.3
41037.45
41037.45
41037.45
41037.45
41037.45
41037.27
41037.27
41037.27
41037.27
41037.27
41225.64
41225.64
41225.64
41225.64
41225.64
41297.94
41297.94
41297.94
41297.94
41297.94
41298.54
41298.54
41298.54
41298.54
41298.54
41227.15
41227.15
41227.15
41227.15
41227.15
41037.28
41037.28
41037.28
41037.28
41037.28
41035.92
41035.92
41035.92
41035.92
41035.92
41223.09
41223.09
41223.09
41223.09
41223.09
41293.43
41293.43
41293.43
41293.43
41293.43
41281.73
41281.73
41281.73
41281.73
41281.73
41159.81
41159.81
41159.81
41159.81
41159.81
40815.08
40815.08
40815.08
40815.08
40815.08
40624.21
40624.21
40624.21
40624.21
40624.21
40567.99
40567.99
40567.99
40567.99
40567.99
40767.41
40767.41
40767.41
40767.41
40767.41
41128.59
41128.59
41128.59
41128.59
41128.59
41259.62
41259.62
41259.62
41259.62
41259.62
41274.1
41274.1
41274.1
41274.1
41274.1
41201.62
41201.62
41201.62
41201.62
41201.62
41009.35
41009.35
41009.35
41009.35
41009.35
41010.63
41010.63
41010.63
41010.63
41010.63
41205.62
41205.62
41205.62
41205.62
41205.62
41280.42
41280.42
41280.42
41280.42
41280.42
41279.99
41279.99
41279.99
41279.99
41279.99
41204.66
41204.66
41204.66
41204.66
41204.66
41011.23
41011.23
41011.23
41011.23
41011.23
41011.35
41011.35
41011.35
41011.35
41011.35
41205.08
41205.08
41205.08
41205.08
41205.08
41280.25
41280.25
41280.25
41280.25
41280.25
41280.17
41280.17
41280.17
41280.17
41280.17
41205.1
41205.1
41205.1
41205.1
41205.1
41011.43
41011.43
41011.43
41011.43
41011.43
41011.39
41011.39
41011.39
41011.39
41011.39
41205.01
41205.01
41205.01
41205.01
41205.01
41280.18
41280.18
41280.18
41280.18
41280.18
41280.2
41280.2
41280.2
41280.2
41280.2
41205.06
41205.06
41205.06
41205.06
41205.06
41011.43
41011.43
41011.43
41011.43
41011.43
41011.41
41011.41
41011.41
41011.41
41011.41
41205.08
41205.08
41205.08
41205.08
41205.08
41280.19
41280.19
41280.19
41280.19
41280.19
41280.27
41280.27
41280.27
41280.27
41280.27
41205.12
41205.12
41205.12
41205.12
41205.12
41011.36
41011.36
41011.36
41011.36
41011.36
41011.19
41011.19
41011.19
41011.19
41011.19
41204.61
41204.61
41204.61
41204.61
41204.61
41279.96
41279.96
41279.96
41279.96
41279.96
41280.46
41280.46
41280.46
41280.46
41280.46
41205.71
41205.71
41205.71
41205.71
41205.71
41010.72
41010.72
41010.72
41010.72
41010.72
41009.39
41009.39
41009.39
41009.39
41009.39
41201.65
41201.65
41201.65
41201.65
41201.65
41274.19
41274.19
41274.19
41274.19
41274.19
41259.84
41259.84
41259.84
41259.84
41259.84
41128.96
41128.96
41128.96
41128.96
41128.96
40768.02
40768.02
40768.02
40768.02
40768.02
40568.67
40568.67
40568.67
40568.67
40568.67
40519.85
40519.85
40519.85
40519.85
40519.85
40726.86
40726.86
40726.86
40726.86
40726.86
41101.81
41101.81
41101.81
41101.81
41101.81
41239.91
41239.91
41239.91
41239.91
41239.91
41256.73
41256.73
41256.73
41256.73
41256.73
41182.93
41182.93
41182.93
41182.93
41182.93
40987.01
40987.01
40987.01
40987.01
40987.01
40988.27
40988.27
40988.27
40988.27
40988.27
41186.93
41186.93
41186.93
41186.93
41186.93
41264.2
41264.2
41264.2
41264.2
41264.2
41263.89
41263.89
41263.89
41263.89
41263.89
41186.41
41186.41
41186.41
41186.41
41186.41
40988.86
40988.86
40988.86
40988.86
40988.86
40988.73
40988.73
40988.73
40988.73
40988.73
41186.11
41186.11
41186.11
41186.11
41186.11
41263.73
41263.73
41263.73
41263.73
41263.73
41263.74
41263.74
41263.74
41263.74
41263.74
41186.21
41186.21
41186.21
41186.21
41186.21
40988.49
40988.49
40988.49
40988.49
40988.49
40988.46
40988.46
40988.46
40988.46
40988.46
41186.07
41186.07
41186.07
41186.07
41186.07
41263.53
41263.53
41263.53
41263.53
41263.53
41263.55
41263.55
41263.55
41263.55
41263.55
41186.12
41186.12
41186.12
41186.12
41186.12
40988.48
40988.48
40988.48
40988.48
40988.48
40988.43
40988.43
40988.43
40988.43
40988.43
41185.96
41185.96
41185.96
41185.96
41185.96
41263.52
41263.52
41263.52
41263.52
41263.52
41263.73
41263.73
41263.73
41263.73
41263.73
41186.16
41186.16
41186.16
41186.16
41186.16
40988.75
40988.75
40988.75
40988.75
40988.75
40988.71
40988.71
40988.71
40988.71
40988.71
41186.24
41186.24
41186.24
41186.24
41186.24
41263.85
41263.85
41263.85
41263.85
41263.85
41264.22
41264.22
41264.22
41264.22
41264.22
41186.99
41186.99
41186.99
41186.99
41186.99
40988.34
40988.34
40988.34
40988.34
40988.34
40987.03
40987.03
40987.03
40987.03
40987.03
41182.95
41182.95
41182.95
41182.95
41182.95
41256.8
41256.8
41256.8
41256.8
41256.8
41240.11
41240.11
41240.11
41240.11
41240.11
41102.25
41102.25
41102.25
41102.25
41102.25
40727.5
40727.5
40727.5
40727.5
40727.5
40520.42
40520.42
40520.42
40520.42
40520.42
40477.98
40477.98
40477.98
40477.98
40477.98
40691.23
40691.23
40691.23
40691.23
40691.23
41077.22
41077.22
41077.22
41077.22
41077.22
41221.14
41221.14
41221.14
41221.14
41221.14
41239.93
41239.93
41239.93
41239.93
41239.93
41165.37
41165.37
41165.37
41165.37
41165.37
40966.58
40966.58
40966.58
40966.58
40966.58
40967.8
40967.8
40967.8
40967.8
40967.8
41169.21
41169.21
41169.21
41169.21
41169.21
41248.47
41248.47
41248.47
41248.47
41248.47
41248.3
41248.3
41248.3
41248.3
41248.3
41169.08
41169.08
41169.08
41169.08
41169.08
40968.61
40968.61
40968.61
40968.61
40968.61
40968.53
40968.53
40968.53
40968.53
40968.53
41168.98
41168.98
41168.98
41168.98
41168.98
41248.39
41248.39
41248.39
41248.39
41248.39
41248.47
41248.47
41248.47
41248.47
41248.47
41169.29
41169.29
41169.29
41169.29
41169.29
40968.89
40968.89
40968.89
40968.89
40968.89
40968.91
40968.91
40968.91
40968.91
40968.91
41169.13
41169.13
41169.13
41169.13
41169.13
41248.42
41248.42
41248.42
41248.42
41248.42
41248.44
41248.44
41248.44
41248.44
41248.44
41169.18
41169.18
41169.18
41169.18
41169.18
40968.95
40968.95
40968.95
40968.95
40968.95
40968.95
40968.95
40968.95
40968.95
40968.95
41169.28
41169.28
41169.28
41169.28
41169.28
41248.48
41248.48
41248.48
41248.48
41248.48
41248.48
41248.48
41248.48
41248.48
41248.48
41169.05
41169.05
41169.05
41169.05
41169.05
40968.82
40968.82
40968.82
40968.82
40968.82
40968.83
40968.83
40968.83
40968.83
40968.83
41169.19
41169.19
41169.19
41169.19
41169.19
41248.44
41248.44
41248.44
41248.44
41248.44
41248.39
41248.39
41248.39
41248.39
41248.39
41169.13
41169.13
41169.13
41169.13
41169.13
40967.67
40967.67
40967.67
40967.67
40967.67
40966.4
40966.4
40966.4
40966.4
40966.4
41165.22
41165.22
41165.22
41165.22
41165.22
41239.65
41239.65
41239.65
41239.65
41239.65
41220.77
41220.77
41220.77
41220.77
41220.77
41076.93
41076.93
41076.93
41076.93
41076.93
40690.86
40690.86
40690.86
40690.86
40690.86
40477.49
40477.49
40477.49
40477.49
40477.49
40440.31
40440.31
40440.31
40440.31
40440.31
40658.92
40658.92
40658.92
40658.92
40658.92
41054.22
41054.22
41054.22
41054.22
41054.22
41202.94
41202.94
41202.94
41202.94
41202.94
41223.84
41223.84
41223.84
41223.84
41223.84
41149.1
41149.1
41149.1
41149.1
41149.1
40948.14
40948.14
40948.14
40948.14
40948.14
40949.32
40949.32
40949.32
40949.32
40949.32
41152.86
41152.86
41152.86
41152.86
41152.86
41233.67
41233.67
41233.67
41233.67
41233.67
41233.95
41233.95
41233.95
41233.95
41233.95
41153.53
41153.53
41153.53
41153.53
41153.53
40950.91
40950.91
40950.91
40950.91
40950.91
40950.75
40950.75
40950.75
40950.75
40950.75
41153.08
41153.08
41153.08
41153.08
41153.08
41233.92
41233.92
41233.92
41233.92
41233.92
41234.1
41234.1
41234.1
41234.1
41234.1
41153.74
41153.74
41153.74
41153.74
41153.74
40951.17
40951.17
40951.17
40951.17
40951.17
40951.03
40951.03
40951.03
40951.03
40951.03
41153.2
41153.2
41153.2
41153.2
41153.2
41233.89
41233.89
41233.89
41233.89
41233.89
41233.91
41233.91
41233.91
41233.91
41233.91
41153.26
41153.26
41153.26
41153.26
41153.26
40951.06
40951.06
40951.06
40951.06
40951.06
40951.06
40951.06
40951.06
40951.06
40951.06
41153.61
41153.61
41153.61
41153.61
41153.61
41234
41234
41234
41234
41234
41233.89
41233.89
41233.89
41233.89
41233.89
41153.17
41153.17
41153.17
41153.17
41153.17
40950.65
40950.65
40950.65
40950.65
40950.65
40950.71
40950.71
40950.71
40950.71
40950.71
41153.34
41153.34
41153.34
41153.34
41153.34
41233.81
41233.81
41233.81
41233.81
41233.81
41233.8
41233.8
41233.8
41233.8
41233.8
41153.05
41153.05
41153.05
41153.05
41153.05
40949.56
40949.56
40949.56
40949.56
40949.56
40948.33
40948.33
40948.33
40948.33
40948.33
41149.24
41149.24
41149.24
41149.24
41149.24
41224.17
41224.17
41224.17
41224.17
41224.17
41203.53
41203.53
41203.53
41203.53
41203.53
41054.99
41054.99
41054.99
41054.99
41054.99
40659.99
40659.99
40659.99
40659.99
40659.99
40441.46
40441.46
40441.46
40441.46
40441.46
40408.89
40408.89
40408.89
40408.89
40408.89
40631.58
40631.58
40631.58
40631.58
40631.58
41033.89
41033.89
41033.89
41033.89
41033.89
41186.72
41186.72
41186.72
41186.72
41186.72
41209.49
41209.49
41209.49
41209.49
41209.49
41134.61
41134.61
41134.61
41134.61
41134.61
40932.42
40932.42
40932.42
40932.42
40932.42
40933.45
40933.45
40933.45
40933.45
40933.45
41138.2
41138.2
41138.2
41138.2
41138.2
41220.22
41220.22
41220.22
41220.22
41220.22
41220.5
41220.5
41220.5
41220.5
41220.5
41139.16
41139.16
41139.16
41139.16
41139.16
40935.1
40935.1
40935.1
40935.1
40935.1
40934.7
40934.7
40934.7
40934.7
40934.7
41138.23
41138.23
41138.23
41138.23
41138.23
41220.09
41220.09
41220.09
41220.09
41220.09
41220.17
41220.17
41220.17
41220.17
41220.17
41138.75
41138.75
41138.75
41138.75
41138.75
40934.67
40934.67
40934.67
40934.67
40934.67
40934.52
40934.52
40934.52
40934.52
40934.52
41138.33
41138.33
41138.33
41138.33
41138.33
41219.96
41219.96
41219.96
41219.96
41219.96
41219.98
41219.98
41219.98
41219.98
41219.98
41138.38
41138.38
41138.38
41138.38
41138.38
40934.55
40934.55
40934.55
40934.55
40934.55
40934.64
40934.64
40934.64
40934.64
40934.64
41138.88
41138.88
41138.88
41138.88
41138.88
41220.32
41220.32
41220.32
41220.32
41220.32
41220.12
41220.12
41220.12
41220.12
41220.12
41138.3
41138.3
41138.3
41138.3
41138.3
40934.73
40934.73
40934.73
40934.73
40934.73
40935.12
40935.12
40935.12
40935.12
40935.12
41139.16
41139.16
41139.16
41139.16
41139.16
41220.46
41220.46
41220.46
41220.46
41220.46
41220.28
41220.28
41220.28
41220.28
41220.28
41138.32
41138.32
41138.32
41138.32
41138.32
40933.59
40933.59
40933.59
40933.59
40933.59
40932.49
40932.49
40932.49
40932.49
40932.49
41134.66
41134.66
41134.66
41134.66
41134.66
41209.62
41209.62
41209.62
41209.62
41209.62
41187
41187
41187
41187
41187
41034.27
41034.27
41034.27
41034.27
41034.27
40632.22
40632.22
40632.22
40632.22
40632.22
40409.69
40409.69
40409.69
40409.69
40409.69
40380.96
40380.96
40380.96
40380.96
40380.96
40607.05
40607.05
40607.05
40607.05
40607.05
41015.11
41015.11
41015.11
41015.11
41015.11
41170.91
41170.91
41170.91
41170.91
41170.91
41195.23
41195.23
41195.23
41195.23
41195.23
41120.55
41120.55
41120.55
41120.55
41120.55
40917.83
40917.83
40917.83
40917.83
40917.83
40918.37
40918.37
40918.37
40918.37
40918.37
41124.09
41124.09
41124.09
41124.09
41124.09
41206.97
41206.97
41206.97
41206.97
41206.97
41207.4
41207.4
41207.4
41207.4
41207.4
41125.62
41125.62
41125.62
41125.62
41125.62
40920.96
40920.96
40920.96
40920.96
40920.96
40920.11
40920.11
40920.11
40920.11
40920.11
41124.56
41124.56
41124.56
41124.56
41124.56
41207.09
41207.09
41207.09
41207.09
41207.09
41207.38
41207.38
41207.38
41207.38
41207.38
41125.42
41125.42
41125.42
41125.42
41125.42
40920.19
40920.19
40920.19
40920.19
40920.19
40920.06
40920.06
40920.06
40920.06
40920.06
41125.11
41125.11
41125.11
41125.11
41125.11
41207.28
41207.28
41207.28
41207.28
41207.28
41207.3
41207.3
41207.3
41207.3
41207.3
41125.16
41125.16
41125.16
41125.16
41125.16
40920.09
40920.09
40920.09
40920.09
40920.09
40920.17
40920.17
40920.17
40920.17
40920.17
41125.41
41125.41
41125.41
41125.41
41125.41
41207.4
41207.4
41207.4
41207.4
41207.4
41207.12
41207.12
41207.12
41207.12
41207.12
41124.63
41124.63
41124.63
41124.63
41124.63
40920.14
40920.14
40920.14
40920.14
40920.14
40920.93
40920.93
40920.93
40920.93
40920.93
41125.56
41125.56
41125.56
41125.56
41125.56
41207.37
41207.37
41207.37
41207.37
41207.37
41207.02
41207.02
41207.02
41207.02
41207.02
41124.2
41124.2
41124.2
41124.2
41124.2
40918.48
40918.48
40918.48
40918.48
40918.48
40917.87
40917.87
40917.87
40917.87
40917.87
41120.59
41120.59
41120.59
41120.59
41120.59
41195.34
41195.34
41195.34
41195.34
41195.34
41171.15
41171.15
41171.15
41171.15
41171.15
41015.53
41015.53
41015.53
41015.53
41015.53
40607.72
40607.72
40607.72
40607.72
40607.72
40381.7
40381.7
40381.7
40381.7
40381.7
40355.78
40355.78
40355.78
40355.78
40355.78
40584.1
40584.1
40584.1
40584.1
40584.1
40996.6
40996.6
40996.6
40996.6
40996.6
41155.84
41155.84
41155.84
41155.84
41155.84
41181.81
41181.81
41181.81
41181.81
41181.81
41107.46
41107.46
41107.46
41107.46
41107.46
40904.35
40904.35
40904.35
40904.35
40904.35
40904.77
40904.77
40904.77
40904.77
40904.77
41110.8
41110.8
41110.8
41110.8
41110.8
41194.53
41194.53
41194.53
41194.53
41194.53
41195.18
41195.18
41195.18
41195.18
41195.18
41112.97
41112.97
41112.97
41112.97
41112.97
40907.31
40907.31
40907.31
40907.31
40907.31
40906.35
40906.35
40906.35
40906.35
40906.35
41111.3
41111.3
41111.3
41111.3
41111.3
41194.53
41194.53
41194.53
41194.53
41194.53
41194.9
41194.9
41194.9
41194.9
41194.9
41112.24
41112.24
41112.24
41112.24
41112.24
40906.09
40906.09
40906.09
40906.09
40906.09
40905.91
40905.91
40905.91
40905.91
40905.91
41111.65
41111.65
41111.65
41111.65
41111.65
41194.52
41194.52
41194.52
41194.52
41194.52
41194.54
41194.54
41194.54
41194.54
41194.54
41111.7
41111.7
41111.7
41111.7
41111.7
40905.94
40905.94
40905.94
40905.94
40905.94
40906.04
40906.04
40906.04
40906.04
40906.04
41112.01
41112.01
41112.01
41112.01
41112.01
41194.71
41194.71
41194.71
41194.71
41194.71
41194.54
41194.54
41194.54
41194.54
41194.54
41111.35
41111.35
41111.35
41111.35
41111.35
40906.37
40906.37
40906.37
40906.37
40906.37
40907.17
40907.17
40907.17
40907.17
40907.17
41112.83
41112.83
41112.83
41112.83
41112.83
41195.15
41195.15
41195.15
41195.15
41195.15
41194.57
41194.57
41194.57
41194.57
41194.57
41110.89
41110.89
41110.89
41110.89
41110.89
40904.85
40904.85
40904.85
40904.85
40904.85
40904.35
40904.35
40904.35
40904.35
40904.35
41107.47
41107.47
41107.47
41107.47
41107.47
41181.89
41181.89
41181.89
41181.89
41181.89
41156.05
41156.05
41156.05
41156.05
41156.05
40997.06
40997.06
40997.06
40997.06
40997.06
40584.78
40584.78
40584.78
40584.78
40584.78
40356.4
40356.4
40356.4
40356.4
40356.4
40332.96
40332.96
40332.96
40332.96
40332.96
40563.7
40563.7
40563.7
40563.7
40563.7
40980.3
40980.3
40980.3
40980.3
40980.3
41141.45
41141.45
41141.45
41141.45
41141.45
41168.57
41168.57
41168.57
41168.57
41168.57
41094.78
41094.78
41094.78
41094.78
41094.78
40891.93
40891.93
40891.93
40891.93
40891.93
40891.55
40891.55
40891.55
40891.55
40891.55
41097.93
41097.93
41097.93
41097.93
41097.93
41182.18
41182.18
41182.18
41182.18
41182.18
41183.04
41183.04
41183.04
41183.04
41183.04
41100.6
41100.6
41100.6
41100.6
41100.6
40894.47
40894.47
40894.47
40894.47
40894.47
40893.25
40893.25
40893.25
40893.25
40893.25
41099.12
41099.12
41099.12
41099.12
41099.12
41182.61
41182.61
41182.61
41182.61
41182.61
41183.02
41183.02
41183.02
41183.02
41183.02
41100.17
41100.17
41100.17
41100.17
41100.17
40893.66
40893.66
40893.66
40893.66
40893.66
40893.33
40893.33
40893.33
40893.33
40893.33
41099.68
41099.68
41099.68
41099.68
41099.68
41182.83
41182.83
41182.83
41182.83
41182.83
41182.85
41182.85
41182.85
41182.85
41182.85
41099.73
41099.73
41099.73
41099.73
41099.73
40893.37
40893.37
40893.37
40893.37
40893.37
40893.72
40893.72
40893.72
40893.72
40893.72
41100.16
41100.16
41100.16
41100.16
41100.16
41183.03
41183.03
41183.03
41183.03
41183.03
41182.7
41182.7
41182.7
41182.7
41182.7
41099.18
41099.18
41099.18
41099.18
41099.18
40893.5
40893.5
40893.5
40893.5
40893.5
40894.65
40894.65
40894.65
40894.65
40894.65
41100.69
41100.69
41100.69
41100.69
41100.69
41183.15
41183.15
41183.15
41183.15
41183.15
41182.1
41182.1
41182.1
41182.1
41182.1
41097.87
41097.87
41097.87
41097.87
41097.87
40891.4
40891.4
40891.4
40891.4
40891.4
40891.7
40891.7
40891.7
40891.7
40891.7
41094.61
41094.61
41094.61
41094.61
41094.61
41168.31
41168.31
41168.31
41168.31
41168.31
41141.12
41141.12
41141.12
41141.12
41141.12
40980.08
40980.08
40980.08
40980.08
40980.08
40563.42
40563.42
40563.42
40563.42
40563.42
40332.56
40332.56
40332.56
40332.56
40332.56
40310.3
40310.3
40310.3
40310.3
40310.3
40542.28
40542.28
40542.28
40542.28
40542.28
40961.82
40961.82
40961.82
40961.82
40961.82
41126.25
41126.25
41126.25
41126.25
41126.25
41155.17
41155.17
41155.17
41155.17
41155.17
41082.1
41082.1
41082.1
41082.1
41082.1
40879.17
40879.17
40879.17
40879.17
40879.17
40878.42
40878.42
40878.42
40878.42
40878.42
41084.49
41084.49
41084.49
41084.49
41084.49
41169.81
41169.81
41169.81
41169.81
41169.81
41171.29
41171.29
41171.29
41171.29
41171.29
41088.47
41088.47
41088.47
41088.47
41088.47
40881.46
40881.46
40881.46
40881.46
40881.46
40880.61
40880.61
40880.61
40880.61
40880.61
41086.59
41086.59
41086.59
41086.59
41086.59
41170.81
41170.81
41170.81
41170.81
41170.81
41171.31
41171.31
41171.31
41171.31
41171.31
41087.99
41087.99
41087.99
41087.99
41087.99
40881.03
40881.03
40881.03
40881.03
40881.03
40880.7
40880.7
40880.7
40880.7
40880.7
41087.14
41087.14
41087.14
41087.14
41087.14
41170.97
41170.97
41170.97
41170.97
41170.97
41171
41171
41171
41171
41171
41087.19
41087.19
41087.19
41087.19
41087.19
40880.74
40880.74
40880.74
40880.74
40880.74
40880.94
40880.94
40880.94
40880.94
40880.94
41087.87
41087.87
41087.87
41087.87
41087.87
41171.23
41171.23
41171.23
41171.23
41171.23
41170.79
41170.79
41170.79
41170.79
41170.79
41086.68
41086.68
41086.68
41086.68
41086.68
40880.53
40880.53
40880.53
40880.53
40880.53
40881.29
40881.29
40881.29
40881.29
40881.29
41088.3
41088.3
41088.3
41088.3
41088.3
41171.18
41171.18
41171.18
41171.18
41171.18
41169.99
41169.99
41169.99
41169.99
41169.99
41084.75
41084.75
41084.75
41084.75
41084.75
40878.71
40878.71
40878.71
40878.71
40878.71
40879.39
40879.39
40879.39
40879.39
40879.39
41082.28
41082.28
41082.28
41082.28
41082.28
41155.54
41155.54
41155.54
41155.54
41155.54
41126.88
41126.88
41126.88
41126.88
41126.88
40962.66
40962.66
40962.66
40962.66
40962.66
40543.46
40543.46
40543.46
40543.46
40543.46
40311.57
40311.57
40311.57
40311.57
40311.57
40290.33
40290.33
40290.33
40290.33
40290.33
40523.64
40523.64
40523.64
40523.64
40523.64
40945.86
40945.86
40945.86
40945.86
40945.86
41112.66
41112.66
41112.66
41112.66
41112.66
41143.12
41143.12
41143.12
41143.12
41143.12
41070.64
41070.64
41070.64
41070.64
41070.64
40867.97
40867.97
40867.97
40867.97
40867.97
40866.74
40866.74
40866.74
40866.74
40866.74
41072.86
41072.86
41072.86
41072.86
41072.86
41158.61
41158.61
41158.61
41158.61
41158.61
41160.09
41160.09
41160.09
41160.09
41160.09
41077.11
41077.11
41077.11
41077.11
41077.11
40869.74
40869.74
40869.74
40869.74
40869.74
40868.63
40868.63
40868.63
40868.63
40868.63
41075.05
41075.05
41075.05
41075.05
41075.05
41159.44
41159.44
41159.44
41159.44
41159.44
41159.8
41159.8
41159.8
41159.8
41159.8
41076.29
41076.29
41076.29
41076.29
41076.29
40868.57
40868.57
40868.57
40868.57
40868.57
40868.24
40868.24
40868.24
40868.24
40868.24
41075.38
41075.38
41075.38
41075.38
41075.38
41159.44
41159.44
41159.44
41159.44
41159.44
41159.47
41159.47
41159.47
41159.47
41159.47
41075.43
41075.43
41075.43
41075.43
41075.43
40868.28
40868.28
40868.28
40868.28
40868.28
40868.56
40868.56
40868.56
40868.56
40868.56
41076.41
41076.41
41076.41
41076.41
41076.41
41159.94
41159.94
41159.94
41159.94
41159.94
41159.47
41159.47
41159.47
41159.47
41159.47
41075.12
41075.12
41075.12
41075.12
41075.12
40868.66
40868.66
40868.66
40868.66
40868.66
40869.77
40869.77
40869.77
40869.77
40869.77
41077.11
41077.11
41077.11
41077.11
41077.11
41160.06
41160.06
41160.06
41160.06
41160.06
41158.69
41158.69
41158.69
41158.69
41158.69
41073.01
41073.01
41073.01
41073.01
41073.01
40866.9
40866.9
40866.9
40866.9
40866.9
40868.06
40868.06
40868.06
40868.06
40868.06
41070.71
41070.71
41070.71
41070.71
41070.71
41143.28
41143.28
41143.28
41143.28
41143.28
41112.97
41112.97
41112.97
41112.97
41112.97
40946.3
40946.3
40946.3
40946.3
40946.3
40524.37
40524.37
40524.37
40524.37
40524.37
40291.22
40291.22
40291.22
40291.22
40291.22
40268.66
40268.66
40268.66
40268.66
40268.66
40501.37
40501.37
40501.37
40501.37
40501.37
40924.72
40924.72
40924.72
40924.72
40924.72
41096.78
41096.78
41096.78
41096.78
41096.78
41129.72
41129.72
41129.72
41129.72
41129.72
41057.45
41057.45
41057.45
41057.45
41057.45
40853.67
40853.67
40853.67
40853.67
40853.67
40853.24
40853.24
40853.24
40853.24
40853.24
41058.96
41058.96
41058.96
41058.96
41058.96
41146.18
41146.18
41146.18
41146.18
41146.18
41147.98
41147.98
41147.98
41147.98
41147.98
41064.12
41064.12
41064.12
41064.12
41064.12
40856.88
40856.88
40856.88
40856.88
40856.88
40855.97
40855.97
40855.97
40855.97
40855.97
41061.82
41061.82
41061.82
41061.82
41061.82
41147.4
41147.4
41147.4
41147.4
41147.4
41147.97
41147.97
41147.97
41147.97
41147.97
41063.44
41063.44
41063.44
41063.44
41063.44
40856.28
40856.28
40856.28
40856.28
40856.28
40855.95
40855.95
40855.95
40855.95
40855.95
41062.55
41062.55
41062.55
41062.55
41062.55
41147.66
41147.66
41147.66
41147.66
41147.66
41147.68
41147.68
41147.68
41147.68
41147.68
41062.6
41062.6
41062.6
41062.6
41062.6
40856
40856
40856
40856
40856
40856.26
40856.26
40856.26
40856.26
40856.26
41063.42
41063.42
41063.42
41063.42
41063.42
41147.98
41147.98
41147.98
41147.98
41147.98
41147.43
41147.43
41147.43
41147.43
41147.43
41061.89
41061.89
41061.89
41061.89
41061.89
40856.01
40856.01
40856.01
40856.01
40856.01
40856.86
40856.86
40856.86
40856.86
40856.86
41064.07
41064.07
41064.07
41064.07
41064.07
41147.96
41147.96
41147.96
41147.96
41147.96
41146.24
41146.24
41146.24
41146.24
41146.24
41059.09
41059.09
41059.09
41059.09
41059.09
40853.38
40853.38
40853.38
40853.38
40853.38
40853.76
40853.76
40853.76
40853.76
40853.76
41057.51
41057.51
41057.51
41057.51
41057.51
41129.86
41129.86
41129.86
41129.86
41129.86
41097.06
41097.06
41097.06
41097.06
41097.06
40925.19
40925.19
40925.19
40925.19
40925.19
40502.11
40502.11
40502.11
40502.11
40502.11
40269.47
40269.47
40269.47
40269.47
40269.47
40241.97
40241.97
40241.97
40241.97
40241.97
40472.32
40472.32
40472.32
40472.32
40472.32
40896.56
40896.56
40896.56
40896.56
40896.56
41078.54
41078.54
41078.54
41078.54
41078.54
41115.39
41115.39
41115.39
41115.39
41115.39
41042.49
41042.49
41042.49
41042.49
41042.49
40838.56
40838.56
40838.56
40838.56
40838.56
40838.55
40838.55
40838.55
40838.55
40838.55
41043.46
41043.46
41043.46
41043.46
41043.46
41133.18
41133.18
41133.18
41133.18
41133.18
41135.28
41135.28
41135.28
41135.28
41135.28
41049.35
41049.35
41049.35
41049.35
41049.35
40842.73
40842.73
40842.73
40842.73
40842.73
40841.78
40841.78
40841.78
40841.78
40841.78
41046.8
41046.8
41046.8
41046.8
41046.8
41134.49
41134.49
41134.49
41134.49
41134.49
41135.1
41135.1
41135.1
41135.1
41135.1
41048.33
41048.33
41048.33
41048.33
41048.33
40841.85
40841.85
40841.85
40841.85
40841.85
40841.54
40841.54
40841.54
40841.54
40841.54
41047.34
41047.34
41047.34
41047.34
41047.34
41134.57
41134.57
41134.57
41134.57
41134.57
41134.59
41134.59
41134.59
41134.59
41134.59
41047.4
41047.4
41047.4
41047.4
41047.4
40841.58
40841.58
40841.58
40841.58
40841.58
40841.8
40841.8
40841.8
40841.8
40841.8
41048.11
41048.11
41048.11
41048.11
41048.11
41134.92
41134.92
41134.92
41134.92
41134.92
41134.51
41134.51
41134.51
41134.51
41134.51
41046.86
41046.86
41046.86
41046.86
41046.86
40841.81
40841.81
40841.81
40841.81
40841.81
40842.6
40842.6
40842.6
40842.6
40842.6
41049.22
41049.22
41049.22
41049.22
41049.22
41135.25
41135.25
41135.25
41135.25
41135.25
41133.23
41133.23
41133.23
41133.23
41133.23
41043.57
41043.57
41043.57
41043.57
41043.57
40838.65
40838.65
40838.65
40838.65
40838.65
40838.61
40838.61
40838.61
40838.61
40838.61
41042.53
41042.53
41042.53
41042.53
41042.53
41115.51
41115.51
41115.51
41115.51
41115.51
41078.81
41078.81
41078.81
41078.81
41078.81
40897.08
40897.08
40897.08
40897.08
40897.08
40473.06
40473.06
40473.06
40473.06
40473.06
40242.65
40242.65
40242.65
40242.65
40242.65
40203.86
40203.86
40203.86
40203.86
40203.86
40432.31
40432.31
40432.31
40432.31
40432.31
40859.94
40859.94
40859.94
40859.94
40859.94
41056
41056
41056
41056
41056
41097.46
41097.46
41097.46
41097.46
41097.46
41021.85
41021.85
41021.85
41021.85
41021.85
40818.22
40818.22
40818.22
40818.22
40818.22
40818.25
40818.25
40818.25
40818.25
40818.25
41022.36
41022.36
41022.36
41022.36
41022.36
41117.18
41117.18
41117.18
41117.18
41117.18
41119.58
41119.58
41119.58
41119.58
41119.58
41028.93
41028.93
41028.93
41028.93
41028.93
40823.2
40823.2
40823.2
40823.2
40823.2
40822.37
40822.37
40822.37
40822.37
40822.37
41026.65
41026.65
41026.65
41026.65
41026.65
41119.07
41119.07
41119.07
41119.07
41119.07
41119.69
41119.69
41119.69
41119.69
41119.69
41028.19
41028.19
41028.19
41028.19
41028.19
40822.98
40822.98
40822.98
40822.98
40822.98
40822.79
40822.79
40822.79
40822.79
40822.79
41027.52
41027.52
41027.52
41027.52
41027.52
41119.4
41119.4
41119.4
41119.4
41119.4
41119.43
41119.43
41119.43
41119.43
41119.43
41027.58
41027.58
41027.58
41027.58
41027.58
40822.83
40822.83
40822.83
40822.83
40822.83
40823.02
40823.02
40823.02
40823.02
40823.02
41028.16
41028.16
41028.16
41028.16
41028.16
41119.7
41119.7
41119.7
41119.7
41119.7
41119.16
41119.16
41119.16
41119.16
41119.16
41026.7
41026.7
41026.7
41026.7
41026.7
40822.59
40822.59
40822.59
40822.59
40822.59
40823.36
40823.36
40823.36
40823.36
40823.36
41029.01
41029.01
41029.01
41029.01
41029.01
41119.67
41119.67
41119.67
41119.67
41119.67
41117.07
41117.07
41117.07
41117.07
41117.07
41022.25
41022.25
41022.25
41022.25
41022.25
40818.06
40818.06
40818.06
40818.06
40818.06
40817.98
40817.98
40817.98
40817.98
40817.98
41021.67
41021.67
41021.67
41021.67
41021.67
41097.21
41097.21
41097.21
41097.21
41097.21
41055.7
41055.7
41055.7
41055.7
41055.7
40859.75
40859.75
40859.75
40859.75
40859.75
40432.04
40432.04
40432.04
40432.04
40432.04
40203.47
40203.47
40203.47
40203.47
40203.47
40131.26
40131.26
40131.26
40131.26
40131.26
40337.95
40337.95
40337.95
40337.95
40337.95
40748.86
40748.86
40748.86
40748.86
40748.86
41001.35
41001.35
41001.35
41001.35
41001.35
41058.45
41058.45
41058.45
41058.45
41058.45
40967.17
40967.17
40967.17
40967.17
40967.17
40777.74
40777.74
40777.74
40777.74
40777.74
40777.76
40777.76
40777.76
40777.76
40777.76
40967.66
40967.66
40967.66
40967.66
40967.66
41083.17
41083.17
41083.17
41083.17
41083.17
41086.28
41086.28
41086.28
41086.28
41086.28
40975.6
40975.6
40975.6
40975.6
40975.6
40784.24
40784.24
40784.24
40784.24
40784.24
40783.46
40783.46
40783.46
40783.46
40783.46
40973.44
40973.44
40973.44
40973.44
40973.44
41085.99
41085.99
41085.99
41085.99
41085.99
41086.59
41086.59
41086.59
41086.59
41086.59
40974.94
40974.94
40974.94
40974.94
40974.94
40784.11
40784.11
40784.11
40784.11
40784.11
40783.91
40783.91
40783.91
40783.91
40783.91
40974.41
40974.41
40974.41
40974.41
40974.41
41086.36
41086.36
41086.36
41086.36
41086.36
41086.39
41086.39
41086.39
41086.39
41086.39
40974.47
40974.47
40974.47
40974.47
40974.47
40783.95
40783.95
40783.95
40783.95
40783.95
40784.01
40784.01
40784.01
40784.01
40784.01
40974.81
40974.81
40974.81
40974.81
40974.81
41086.51
41086.51
41086.51
41086.51
41086.51
41085.98
41085.98
41085.98
41085.98
41085.98
40973.54
40973.54
40973.54
40973.54
40973.54
40783.39
40783.39
40783.39
40783.39
40783.39
40784.08
40784.08
40784.08
40784.08
40784.08
40975.44
40975.44
40975.44
40975.44
40975.44
41086.18
41086.18
41086.18
41086.18
41086.18
41083.39
41083.39
41083.39
41083.39
41083.39
40967.97
40967.97
40967.97
40967.97
40967.97
40778.15
40778.15
40778.15
40778.15
40778.15
40778.08
40778.08
40778.08
40778.08
40778.08
40967.44
40967.44
40967.44
40967.44
40967.44
41058.92
41058.92
41058.92
41058.92
41058.92
41002.12
41002.12
41002.12
41002.12
41002.12
40749.92
40749.92
40749.92
40749.92
40749.92
40339.39
40339.39
40339.39
40339.39
40339.39
40132.79
40132.79
40132.79
40132.79
40132.79
40037.66
40037.66
40037.66
40037.66
40037.66
40234.67
40234.67
40234.67
40234.67
40234.67
40628.8
40628.8
40628.8
40628.8
40628.8
40911.63
40911.63
40911.63
40911.63
40911.63
40984.67
40984.67
40984.67
40984.67
40984.67
40888.38
40888.38
40888.38
40888.38
40888.38
40712.62
40712.62
40712.62
40712.62
40712.62
40713.74
40713.74
40713.74
40713.74
40713.74
40893.5
40893.5
40893.5
40893.5
40893.5
41018.41
41018.41
41018.41
41018.41
41018.41
41021.33
41021.33
41021.33
41021.33
41021.33
40901.05
40901.05
40901.05
40901.05
40901.05
40720.82
40720.82
40720.82
40720.82
40720.82
40720.21
40720.21
40720.21
40720.21
40720.21
40899.44
40899.44
40899.44
40899.44
40899.44
41021.24
41021.24
41021.24
41021.24
41021.24
41021.56
41021.56
41021.56
41021.56
41021.56
40900.29
40900.29
40900.29
40900.29
40900.29
40720.24
40720.24
40720.24
40720.24
40720.24
40720.09
40720.09
40720.09
40720.09
40720.09
40899.93
40899.93
40899.93
40899.93
40899.93
41021.4
41021.4
41021.4
41021.4
41021.4
41021.43
41021.43
41021.43
41021.43
41021.43
40900.01
40900.01
40900.01
40900.01
40900.01
40720.14
40720.14
40720.14
40720.14
40720.14
40720.24
40720.24
40720.24
40720.24
40720.24
40900.43
40900.43
40900.43
40900.43
40900.43
41021.73
41021.73
41021.73
41021.73
41021.73
41021.29
41021.29
41021.29
41021.29
41021.29
40899.52
40899.52
40899.52
40899.52
40899.52
40720.27
40720.27
40720.27
40720.27
40720.27
40720.9
40720.9
40720.9
40720.9
40720.9
40901.08
40901.08
40901.08
40901.08
40901.08
41021.32
41021.32
41021.32
41021.32
41021.32
41018.52
41018.52
41018.52
41018.52
41018.52
40893.69
40893.69
40893.69
40893.69
40893.69
40713.98
40713.98
40713.98
40713.98
40713.98
40712.8
40712.8
40712.8
40712.8
40712.8
40888.54
40888.54
40888.54
40888.54
40888.54
40984.94
40984.94
40984.94
40984.94
40984.94
40912.1
40912.1
40912.1
40912.1
40912.1
40629.47
40629.47
40629.47
40629.47
40629.47
40235.6
40235.6
40235.6
40235.6
40235.6
40038.73
40038.73
40038.73
40038.73
40038.73
)
;

boundaryField
{
    electrolyteSides
    {
        type            zeroGradient;
    }
    electrolyte_to_fuel
    {
        type            zeroGradient;
    }
    electrolyte_to_air
    {
        type            zeroGradient;
    }
}


// ************************************************************************* //
